"Time","Membrane(mV)","Membrane(mV)10","Membrane(mV)25"
-50,-80.8,-80.01,-78.74
-49.5,-80.8,-80.01,-78.74
-49,-80.8,-80.01,-78.74
-48.5,-80.8,-80.01,-78.74
-48,-80.81,-80.01,-78.74
-47.5,-80.81,-80.01,-78.74
-47,-80.81,-80.01,-78.74
-46.5,-80.81,-80.01,-78.74
-46,-80.81,-80.01,-78.74
-45.5,-80.81,-80.01,-78.74
-45,-80.81,-80.01,-78.75
-44.5,-80.81,-80.02,-78.75
-44,-80.81,-80.02,-78.75
-43.5,-80.81,-80.02,-78.75
-43,-80.81,-80.02,-78.75
-42.5,-80.81,-80.02,-78.75
-42,-80.81,-80.02,-78.75
-41.5,-80.81,-80.02,-78.75
-41,-80.81,-80.02,-78.75
-40.5,-80.82,-80.02,-78.75
-40,-80.82,-80.02,-78.75
-39.5,-80.82,-80.02,-78.75
-39,-80.82,-80.02,-78.75
-38.5,-80.82,-80.02,-78.75
-38,-80.82,-80.02,-78.75
-37.5,-80.82,-80.02,-78.75
-37,-80.82,-80.02,-78.75
-36.5,-80.82,-80.02,-78.75
-36,-80.82,-80.02,-78.75
-35.5,-80.82,-80.02,-78.75
-35,-80.82,-80.02,-78.75
-34.5,-80.82,-80.02,-78.75
-34,-80.82,-80.02,-78.75
-33.5,-80.82,-80.02,-78.75
-33,-80.82,-80.02,-78.75
-32.5,-80.82,-80.02,-78.75
-32,-80.83,-80.02,-78.75
-31.5,-80.83,-80.02,-78.75
-31,-80.83,-80.02,-78.75
-30.5,-80.83,-80.02,-78.75
-30,-80.83,-80.02,-78.75
-29.5,-80.83,-80.02,-78.75
-29,-80.83,-80.02,-78.75
-28.5,-80.83,-80.03,-78.75
-28,-80.83,-80.03,-78.75
-27.5,-80.83,-80.03,-78.75
-27,-80.83,-80.03,-78.75
-26.5,-80.83,-80.03,-78.75
-26,-80.83,-80.03,-78.75
-25.5,-80.83,-80.03,-78.75
-25,-80.83,-80.03,-78.75
-24.5,-80.83,-80.03,-78.75
-24,-80.84,-80.03,-78.75
-23.5,-80.84,-80.03,-78.75
-23,-80.84,-80.03,-78.75
-22.5,-80.84,-80.03,-78.75
-22,-80.84,-80.03,-78.75
-21.5,-80.84,-80.03,-78.75
-21,-80.84,-80.03,-78.75
-20.5,-80.84,-80.03,-78.75
-20,-80.84,-80.03,-78.76
-19.5,-80.84,-80.03,-78.76
-19,-80.84,-80.03,-78.76
-18.5,-80.84,-80.03,-78.76
-18,-80.84,-80.03,-78.76
-17.5,-80.84,-80.03,-78.76
-17,-80.84,-80.03,-78.76
-16.5,-80.84,-80.03,-78.76
-16,-80.84,-80.03,-78.76
-15.5,-80.85,-80.03,-78.76
-15,-80.85,-80.03,-78.76
-14.5,-80.85,-80.03,-78.76
-14,-80.85,-80.03,-78.76
-13.5,-80.85,-80.03,-78.76
-13,-80.85,-80.03,-78.76
-12.5,-80.85,-80.03,-78.76
-12,-80.85,-80.03,-78.76
-11.5,-80.85,-80.04,-78.76
-11,-80.85,-80.04,-78.76
-10.5,-80.85,-80.04,-78.76
.0,-80.85,-80.04,-78.76
-9.5,-80.85,-80.04,-78.76
-9,-80.85,-80.04,-78.76
-8.5,-80.85,-80.04,-78.76
-8,-80.85,-80.04,-78.76
-7.5,-80.85,-80.04,-78.76
-7,-80.85,-80.04,-78.76
-6.5,-80.86,-80.04,-78.76
-6,-80.86,-80.04,-78.76
-5.5,-80.86,-80.04,-78.76
-5,-80.86,-80.04,-78.76
-4.5,-80.86,-80.04,-78.76
-4,-80.86,-80.04,-78.76
-3.5,-80.86,-80.04,-78.76
-3,-80.86,-80.04,-78.76
-2.5,-80.86,-80.04,-78.76
-2,-80.86,-80.04,-78.76
-1.5,-80.86,-80.04,-78.76
-0.99,-80.86,-80.04,-78.76
-0.49,-80.86,-80.04,-78.76
0.01,-80.86,-80.04,-78.76
0.51,-71.84,-71.04,-69.79
1.01,-61.99,-61.26,-60.11
1.51,-51.46,-50.67,-49.35
2.01,-11.41,-5.97,1.82
2.51,24.61,24.08,23.05
3.01,22.88,21.67,19.58
3.51,18.62,17.15,14.55
4.01,14.16,12.61,9.76
4.51,10.26,8.73,5.73
5.01,7.09,5.61,2.5
5.51,4.58,3.15,-0.07
6.01,2.58,1.21,-2.13
6.51,0.98,-0.34,-3.82
7.01,-0.33,-1.62,-5.26
7.51,-1.44,-2.69,-6.5
8.01,-2.38,-3.61,-7.62
8.51,-3.21,-4.43,-8.65
9.01,-3.95,-5.18,-9.61
9.51,-4.62,-5.86,-10.53
10.01,-5.23,-6.49,-11.42
10.51,-5.8,-7.09,-12.28
11.01,-6.32,-7.66,-13.12
11.51,-6.81,-8.2,-13.95
12.01,-7.27,-8.71,-14.77
12.51,-7.69,-9.2,-15.58
13.01,-8.09,-9.68,-16.39
13.51,-8.46,-10.13,-17.18
14.01,-8.81,-10.57,-17.98
14.51,-9.14,-10.99,-18.77
15.01,-9.44,-11.4,-19.56
15.51,-9.72,-11.79,-20.34
16.01,-9.99,-12.18,-21.13
16.51,-10.23,-12.55,-21.91
17.01,-10.46,-12.9,-22.7
17.51,-10.67,-13.25,-23.48
18.01,-10.87,-13.59,-24.26
18.51,-11.06,-13.92,-25.03
19.01,-11.23,-14.25,-25.81
19.51,-11.38,-14.56,-26.58
20.01,-11.53,-14.87,-27.35
20.51,-11.67,-15.18,-28.12
21.01,-11.79,-15.47,-28.88
21.51,-11.9,-15.77,-29.63
22.01,-12.01,-16.05,-30.39
22.51,-12.1,-16.34,-31.13
23.01,-12.19,-16.62,-31.87
23.51,-12.27,-16.89,-32.6
24.01,-12.34,-17.17,-33.33
24.51,-12.41,-17.44,-34.04
25.01,-12.47,-17.71,-34.75
25.51,-12.52,-17.97,-35.45
26.01,-12.56,-18.24,-36.14
26.51,-12.6,-18.5,-36.82
27.01,-12.64,-18.76,-37.5
27.51,-12.67,-19.03,-38.16
28.01,-12.69,-19.29,-38.81
28.51,-12.71,-19.55,-39.46
29.01,-12.73,-19.81,-40.09
29.51,-12.74,-20.06,-40.72
30.01,-12.75,-20.32,-41.34
30.51,-12.75,-20.58,-41.94
31.01,-12.75,-20.84,-42.54
31.51,-12.75,-21.1,-43.13
32.01,-12.74,-21.36,-43.71
32.51,-12.73,-21.62,-44.28
33.01,-12.72,-21.89,-44.84
33.51,-12.7,-22.15,-45.4
34.01,-12.68,-22.41,-45.94
34.51,-12.66,-22.68,-46.48
35.01,-12.64,-22.94,-47.01
35.51,-12.61,-23.21,-47.53
36.01,-12.59,-23.47,-48.04
36.51,-12.56,-23.74,-48.55
37.01,-12.52,-24.01,-49.04
37.51,-12.49,-24.29,-49.53
38.01,-12.46,-24.56,-50.01
38.51,-12.42,-24.83,-50.49
39.01,-12.38,-25.11,-50.96
39.51,-12.34,-25.38,-51.42
40.01,-12.3,-25.66,-51.87
40.51,-12.26,-25.94,-52.31
41.01,-12.21,-26.22,-52.75
41.51,-12.17,-26.5,-53.18
42.01,-12.12,-26.79,-53.61
42.51,-12.08,-27.07,-54.03
43.01,-12.03,-27.36,-54.44
43.51,-11.98,-27.64,-54.84
44.01,-11.93,-27.93,-55.24
44.51,-11.88,-28.22,-55.63
45.01,-11.83,-28.51,-56.02
45.51,-11.78,-28.81,-56.4
46.01,-11.72,-29.1,-56.77
46.51,-11.67,-29.39,-57.14
47.01,-11.62,-29.69,-57.5
47.51,-11.56,-29.98,-57.86
48.01,-11.51,-30.28,-58.21
48.51,-11.46,-30.58,-58.55
49.01,-11.4,-30.87,-58.89
49.51,-11.35,-31.17,-59.22
50.01,-11.29,-31.47,-59.55
50.51,-11.24,-31.77,-59.87
51.01,-11.18,-32.07,-60.19
51.51,-11.13,-32.37,-60.5
52.01,-11.08,-32.67,-60.8
52.51,-11.02,-32.98,-61.1
53.01,-10.97,-33.28,-61.39
53.51,-10.91,-33.58,-61.68
54.01,-10.86,-33.88,-61.97
54.51,-10.8,-34.19,-62.25
55.01,-10.75,-34.49,-62.52
55.51,-10.7,-34.79,-62.79
56.01,-10.65,-35.09,-63.05
56.51,-10.59,-35.4,-63.31
57.01,-10.54,-35.7,-63.56
57.51,-10.49,-36,-63.81
58.01,-10.44,-36.3,-64.05
58.51,-10.39,-36.6,-64.29
59.01,-10.34,-36.9,-64.53
59.51,-10.29,-37.2,-64.76
60.01,-10.24,-37.51,-64.98
60.51,-10.19,-37.81,-65.21
61.01,-10.14,-38.1,-65.42
61.51,-10.1,-38.4,-65.63
62.01,-10.05,-38.7,-65.84
62.51,-10.01,-39,-66.05
63.01,-9.96,-39.3,-66.25
63.51,-9.92,-39.59,-66.44
64.01,-9.88,-39.89,-66.63
64.51,-9.83,-40.18,-66.82
65.01,-9.79,-40.48,-67
65.51,-9.75,-40.77,-67.18
66.01,-9.71,-41.06,-67.36
66.51,-9.67,-41.35,-67.53
67.01,-9.64,-41.64,-67.7
67.51,-9.6,-41.93,-67.87
68.01,-9.56,-42.22,-68.03
68.51,-9.53,-42.51,-68.19
69.01,-9.5,-42.8,-68.34
69.51,-9.46,-43.08,-68.49
70.01,-9.43,-43.37,-68.64
70.51,-9.4,-43.65,-68.79
71.01,-9.37,-43.93,-68.93
71.51,-9.34,-44.22,-69.07
72.01,-9.31,-44.5,-69.2
72.51,-9.29,-44.78,-69.34
73.01,-9.26,-45.05,-69.47
73.51,-9.24,-45.33,-69.59
74.01,-9.21,-45.61,-69.72
74.51,-9.19,-45.88,-69.84
75.01,-9.17,-46.16,-69.96
75.51,-9.15,-46.43,-70.07
76.01,-9.13,-46.7,-70.19
76.51,-9.11,-46.97,-70.3
77.01,-9.1,-47.24,-70.41
77.51,-9.08,-47.51,-70.51
78.01,-9.07,-47.78,-70.62
78.51,-9.06,-48.04,-70.72
79.01,-9.04,-48.31,-70.82
79.51,-9.03,-48.57,-70.91
80.01,-9.02,-48.83,-71.01
80.51,-9.01,-49.09,-71.1
81.01,-9.01,-49.35,-71.19
81.51,-9,-49.61,-71.28
82.01,-9,-49.87,-71.37
82.51,-8.99,-50.12,-71.45
83.01,-8.99,-50.38,-71.53
83.51,-8.99,-50.63,-71.61
84.01,-8.99,-50.88,-71.69
84.51,-8.99,-51.13,-71.77
85.01,-8.99,-51.38,-71.85
85.51,-8.99,-51.63,-71.92
86.01,-9,-51.88,-71.99
86.51,-9,-52.13,-72.06
87.01,-9.01,-52.37,-72.13
87.51,-9.02,-52.61,-72.2
88.01,-9.02,-52.86,-72.27
88.51,-9.03,-53.1,-72.33
89.01,-9.04,-53.34,-72.39
89.51,-9.06,-53.57,-72.46
90.01,-9.07,-53.81,-72.52
90.51,-9.08,-54.05,-72.58
91.01,-9.1,-54.28,-72.63
91.51,-9.12,-54.51,-72.69
92.01,-9.13,-54.75,-72.75
92.51,-9.15,-54.98,-72.8
93.01,-9.17,-55.21,-72.85
93.51,-9.19,-55.43,-72.9
94.01,-9.22,-55.66,-72.96
94.51,-9.24,-55.89,-73.01
95.01,-9.26,-56.11,-73.05
95.51,-9.29,-56.33,-73.1
96.01,-9.31,-56.55,-73.15
96.51,-9.34,-56.77,-73.19
97.01,-9.37,-56.99,-73.24
97.51,-9.4,-57.21,-73.28
98.01,-9.43,-57.42,-73.33
98.51,-9.46,-57.64,-73.37
99.01,-9.5,-57.85,-73.41
99.51,-9.53,-58.06,-73.45
100.01,-9.56,-58.27,-73.49
100.51,-9.6,-58.48,-73.53
101.01,-9.64,-58.69,-73.57
101.51,-9.67,-58.9,-73.61
102.01,-9.71,-59.1,-73.64
102.51,-9.75,-59.3,-73.68
103.01,-9.79,-59.51,-73.71
103.51,-9.84,-59.71,-73.75
104.01,-9.88,-59.9,-73.78
104.51,-9.92,-60.1,-73.82
105.01,-9.97,-60.3,-73.85
105.51,-10.01,-60.49,-73.88
106.01,-10.06,-60.69,-73.91
106.51,-10.11,-60.88,-73.94
107.01,-10.16,-61.07,-73.97
107.51,-10.21,-61.26,-74
108.01,-10.26,-61.44,-74.03
108.51,-10.31,-61.63,-74.06
109.01,-10.36,-61.81,-74.09
109.51,-10.42,-62,-74.12
110.01,-10.47,-62.18,-74.15
110.51,-10.53,-62.36,-74.17
111.01,-10.59,-62.54,-74.2
111.51,-10.64,-62.71,-74.23
112.01,-10.7,-62.89,-74.25
112.51,-10.76,-63.06,-74.28
113.01,-10.82,-63.24,-74.3
113.51,-10.88,-63.41,-74.33
114.01,-10.95,-63.58,-74.35
114.51,-11.01,-63.74,-74.38
115.01,-11.07,-63.91,-74.4
115.51,-11.14,-64.08,-74.42
116.01,-11.21,-64.24,-74.45
116.51,-11.27,-64.4,-74.47
117.01,-11.34,-64.56,-74.49
117.51,-11.41,-64.72,-74.51
118.01,-11.48,-64.88,-74.53
118.51,-11.55,-65.03,-74.56
119.01,-11.63,-65.19,-74.58
119.51,-11.7,-65.34,-74.6
120.01,-11.77,-65.49,-74.62
120.51,-11.85,-65.64,-74.64
121.01,-11.92,-65.79,-74.66
121.51,-12,-65.93,-74.68
122.01,-12.08,-66.08,-74.7
122.51,-12.16,-66.22,-74.71
123.01,-12.24,-66.36,-74.73
123.51,-12.32,-66.51,-74.75
124.01,-12.4,-66.64,-74.77
124.51,-12.48,-66.78,-74.79
125.01,-12.57,-66.92,-74.81
125.51,-12.65,-67.05,-74.82
126.01,-12.74,-67.18,-74.84
126.51,-12.82,-67.32,-74.86
127.01,-12.91,-67.45,-74.88
127.51,-13,-67.57,-74.89
128.01,-13.09,-67.7,-74.91
128.51,-13.18,-67.83,-74.93
129.01,-13.27,-67.95,-74.94
129.51,-13.36,-68.07,-74.96
130.01,-13.46,-68.19,-74.98
130.51,-13.55,-68.31,-74.99
131.01,-13.65,-68.43,-75.01
131.51,-13.74,-68.55,-75.02
132.01,-13.84,-68.66,-75.04
132.51,-13.94,-68.78,-75.05
133.01,-14.04,-68.89,-75.07
133.51,-14.14,-69,-75.08
134.01,-14.24,-69.11,-75.1
134.51,-14.34,-69.22,-75.11
135.01,-14.45,-69.33,-75.13
135.51,-14.55,-69.43,-75.14
136.01,-14.66,-69.54,-75.16
136.51,-14.76,-69.64,-75.17
137.01,-14.87,-69.74,-75.18
137.51,-14.98,-69.84,-75.2
138.01,-15.09,-69.94,-75.21
138.51,-15.2,-70.04,-75.22
139.01,-15.31,-70.14,-75.24
139.51,-15.42,-70.23,-75.25
140.01,-15.54,-70.33,-75.26
140.51,-15.65,-70.42,-75.28
141.01,-15.77,-70.51,-75.29
141.51,-15.88,-70.6,-75.3
142.01,-16,-70.69,-75.32
142.51,-16.12,-70.78,-75.33
143.01,-16.24,-70.86,-75.34
143.51,-16.36,-70.95,-75.35
144.01,-16.48,-71.03,-75.37
144.51,-16.61,-71.12,-75.38
145.01,-16.73,-71.2,-75.39
145.51,-16.86,-71.28,-75.4
146.01,-16.98,-71.36,-75.42
146.51,-17.11,-71.44,-75.43
147.01,-17.24,-71.51,-75.44
147.51,-17.37,-71.59,-75.45
148.01,-17.5,-71.67,-75.46
148.51,-17.63,-71.74,-75.48
149.01,-17.77,-71.81,-75.49
149.51,-17.9,-71.89,-75.5
150.01,-18.04,-71.96,-75.51
150.51,-18.17,-72.03,-75.52
151.01,-18.31,-72.1,-75.53
151.51,-18.45,-72.17,-75.54
152.01,-18.59,-72.23,-75.55
152.51,-18.73,-72.3,-75.57
153.01,-18.87,-72.36,-75.58
153.51,-19.01,-72.43,-75.59
154.01,-19.16,-72.49,-75.6
154.51,-19.3,-72.56,-75.61
155.01,-19.45,-72.62,-75.62
155.51,-19.6,-72.68,-75.63
156.01,-19.74,-72.74,-75.64
156.51,-19.89,-72.8,-75.65
157.01,-20.04,-72.86,-75.66
157.51,-20.2,-72.91,-75.67
158.01,-20.35,-72.97,-75.68
158.51,-20.5,-73.03,-75.69
159.01,-20.66,-73.08,-75.7
159.51,-20.81,-73.13,-75.71
160.01,-20.97,-73.19,-75.72
160.51,-21.13,-73.24,-75.73
161.01,-21.29,-73.29,-75.74
161.51,-21.45,-73.34,-75.75
162.01,-21.61,-73.39,-75.76
162.51,-21.77,-73.44,-75.77
163.01,-21.93,-73.49,-75.78
163.51,-22.1,-73.54,-75.79
164.01,-22.26,-73.59,-75.8
164.51,-22.43,-73.64,-75.81
165.01,-22.59,-73.68,-75.82
165.51,-22.76,-73.73,-75.83
166.01,-22.93,-73.77,-75.84
166.51,-23.1,-73.82,-75.85
167.01,-23.27,-73.86,-75.86
167.51,-23.44,-73.91,-75.87
168.01,-23.62,-73.95,-75.88
168.51,-23.79,-73.99,-75.89
169.01,-23.96,-74.03,-75.9
169.51,-24.14,-74.07,-75.91
170.01,-24.32,-74.11,-75.92
170.51,-24.49,-74.15,-75.93
171.01,-24.67,-74.19,-75.93
171.51,-24.85,-74.23,-75.94
172.01,-25.03,-74.27,-75.95
172.51,-25.21,-74.31,-75.96
173.01,-25.39,-74.34,-75.97
173.51,-25.57,-74.38,-75.98
174.01,-25.76,-74.42,-75.99
174.51,-25.94,-74.45,-76
175.01,-26.13,-74.49,-76.01
175.51,-26.31,-74.52,-76.01
176.01,-26.5,-74.56,-76.02
176.51,-26.68,-74.59,-76.03
177.01,-26.87,-74.62,-76.04
177.51,-27.06,-74.65,-76.05
178.01,-27.25,-74.69,-76.06
178.51,-27.44,-74.72,-76.07
179.01,-27.63,-74.75,-76.07
179.51,-27.82,-74.78,-76.08
180.01,-28.01,-74.81,-76.09
180.51,-28.2,-74.84,-76.1
181.01,-28.4,-74.87,-76.11
181.51,-28.59,-74.9,-76.12
182.01,-28.78,-74.93,-76.12
182.51,-28.98,-74.96,-76.13
183.01,-29.17,-74.99,-76.14
183.51,-29.37,-75.02,-76.15
184.01,-29.56,-75.05,-76.16
184.51,-29.76,-75.07,-76.16
185.01,-29.96,-75.1,-76.17
185.51,-30.16,-75.13,-76.18
186.01,-30.35,-75.15,-76.19
186.51,-30.55,-75.18,-76.2
187.01,-30.75,-75.21,-76.2
187.51,-30.95,-75.23,-76.21
188.01,-31.15,-75.26,-76.22
188.51,-31.35,-75.28,-76.23
189.01,-31.55,-75.31,-76.23
189.51,-31.75,-75.33,-76.24
190.01,-31.95,-75.35,-76.25
190.51,-32.16,-75.38,-76.26
191.01,-32.36,-75.4,-76.27
191.51,-32.56,-75.42,-76.27
192.01,-32.76,-75.45,-76.28
192.51,-32.97,-75.47,-76.29
193.01,-33.17,-75.49,-76.3
193.51,-33.37,-75.51,-76.3
194.01,-33.58,-75.54,-76.31
194.51,-33.78,-75.56,-76.32
195.01,-33.98,-75.58,-76.33
195.51,-34.19,-75.6,-76.33
196.01,-34.39,-75.62,-76.34
196.51,-34.6,-75.64,-76.35
197.01,-34.8,-75.66,-76.35
197.51,-35.01,-75.68,-76.36
198.01,-35.21,-75.7,-76.37
198.51,-35.42,-75.72,-76.38
199.01,-35.62,-75.74,-76.38
199.51,-35.83,-75.76,-76.39
200.01,-36.04,-75.78,-76.4
200.51,-36.24,-75.8,-76.4
201.01,-36.45,-75.82,-76.41
201.51,-36.65,-75.84,-76.42
202.01,-36.86,-75.86,-76.43
202.51,-37.07,-75.88,-76.43
203.01,-37.27,-75.89,-76.44
203.51,-37.48,-75.91,-76.45
204.01,-37.68,-75.93,-76.45
204.51,-37.89,-75.95,-76.46
205.01,-38.1,-75.96,-76.47
205.51,-38.3,-75.98,-76.47
206.01,-38.51,-76,-76.48
206.51,-38.72,-76.02,-76.49
207.01,-38.92,-76.03,-76.49
207.51,-39.13,-76.05,-76.5
208.01,-39.33,-76.07,-76.51
208.51,-39.54,-76.08,-76.51
209.01,-39.75,-76.1,-76.52
209.51,-39.95,-76.11,-76.53
210.01,-40.16,-76.13,-76.53
210.51,-40.36,-76.15,-76.54
211.01,-40.57,-76.16,-76.55
211.51,-40.77,-76.18,-76.55
212.01,-40.98,-76.19,-76.56
212.51,-41.18,-76.21,-76.57
213.01,-41.39,-76.22,-76.57
213.51,-41.59,-76.24,-76.58
214.01,-41.8,-76.25,-76.59
214.51,-42,-76.27,-76.59
215.01,-42.21,-76.28,-76.6
215.51,-42.41,-76.3,-76.6
216.01,-42.62,-76.31,-76.61
216.51,-42.82,-76.33,-76.62
217.01,-43.02,-76.34,-76.62
217.51,-43.23,-76.35,-76.63
218.01,-43.43,-76.37,-76.64
218.51,-43.63,-76.38,-76.64
219.01,-43.84,-76.4,-76.65
219.51,-44.04,-76.41,-76.65
220.01,-44.24,-76.42,-76.66
220.51,-44.45,-76.44,-76.67
221.01,-44.65,-76.45,-76.67
221.51,-44.85,-76.46,-76.68
222.01,-45.05,-76.48,-76.68
222.51,-45.25,-76.49,-76.69
223.01,-45.45,-76.5,-76.7
223.51,-45.65,-76.51,-76.7
224.01,-45.85,-76.53,-76.71
224.51,-46.05,-76.54,-76.71
225.01,-46.25,-76.55,-76.72
225.51,-46.45,-76.57,-76.73
226.01,-46.65,-76.58,-76.73
226.51,-46.85,-76.59,-76.74
227.01,-47.05,-76.6,-76.74
227.51,-47.25,-76.61,-76.75
228.01,-47.45,-76.63,-76.76
228.51,-47.65,-76.64,-76.76
229.01,-47.84,-76.65,-76.77
229.51,-48.04,-76.66,-76.77
230.01,-48.24,-76.67,-76.78
230.51,-48.44,-76.69,-76.78
231.01,-48.63,-76.7,-76.79
231.51,-48.83,-76.71,-76.8
232.01,-49.02,-76.72,-76.8
232.51,-49.22,-76.73,-76.81
233.01,-49.41,-76.74,-76.81
233.51,-49.61,-76.75,-76.82
234.01,-49.8,-76.77,-76.82
234.51,-50,-76.78,-76.83
235.01,-50.19,-76.79,-76.83
235.51,-50.39,-76.8,-76.84
236.01,-50.58,-76.81,-76.84
236.51,-50.77,-76.82,-76.85
237.01,-50.96,-76.83,-76.86
237.51,-51.16,-76.84,-76.86
238.01,-51.35,-76.85,-76.87
238.51,-51.54,-76.86,-76.87
239.01,-51.73,-76.87,-76.88
239.51,-51.92,-76.88,-76.88
240.01,-52.11,-76.89,-76.89
240.51,-52.3,-76.9,-76.89
241.01,-52.49,-76.91,-76.9
241.51,-52.68,-76.92,-76.9
242.01,-52.87,-76.94,-76.91
242.51,-53.06,-76.95,-76.91
243.01,-53.24,-76.96,-76.92
243.51,-53.43,-76.97,-76.92
244.01,-53.62,-76.98,-76.93
244.51,-53.81,-76.99,-76.93
245.01,-53.99,-76.99,-76.94
245.51,-54.18,-77,-76.95
246.01,-54.36,-77.01,-76.95
246.51,-54.55,-77.02,-76.96
247.01,-54.73,-77.03,-76.96
247.51,-54.92,-77.04,-76.97
248.01,-55.1,-77.05,-76.97
248.51,-55.28,-77.06,-76.98
249.01,-55.47,-77.07,-76.98
249.51,-55.65,-77.08,-76.99
250.01,-55.83,-77.09,-76.99
250.51,-56.01,-77.1,-77
251.01,-56.19,-77.11,-77
251.51,-56.37,-77.12,-77.01
252.01,-56.55,-77.13,-77.01
252.51,-56.73,-77.14,-77.01
253.01,-56.91,-77.15,-77.02
253.51,-57.09,-77.15,-77.02
254.01,-57.27,-77.16,-77.03
254.51,-57.45,-77.17,-77.03
255.01,-57.62,-77.18,-77.04
255.51,-57.8,-77.19,-77.04
256.01,-57.97,-77.2,-77.05
256.51,-58.15,-77.21,-77.05
257.01,-58.32,-77.22,-77.06
257.51,-58.5,-77.23,-77.06
258.01,-58.67,-77.23,-77.07
258.51,-58.84,-77.24,-77.07
259.01,-59.02,-77.25,-77.08
259.51,-59.19,-77.26,-77.08
260.01,-59.36,-77.27,-77.09
260.51,-59.53,-77.28,-77.09
261.01,-59.7,-77.28,-77.1
261.51,-59.87,-77.29,-77.1
262.01,-60.04,-77.3,-77.1
262.51,-60.21,-77.31,-77.11
263.01,-60.37,-77.32,-77.11
263.51,-60.54,-77.33,-77.12
264.01,-60.71,-77.33,-77.12
264.51,-60.87,-77.34,-77.13
265.01,-61.04,-77.35,-77.13
265.51,-61.2,-77.36,-77.14
266.01,-61.36,-77.37,-77.14
266.51,-61.53,-77.37,-77.15
267.01,-61.69,-77.38,-77.15
267.51,-61.85,-77.39,-77.15
268.01,-62.01,-77.4,-77.16
268.51,-62.17,-77.41,-77.16
269.01,-62.33,-77.41,-77.17
269.51,-62.49,-77.42,-77.17
270.01,-62.64,-77.43,-77.18
270.51,-62.8,-77.44,-77.18
271.01,-62.96,-77.45,-77.18
271.51,-63.11,-77.45,-77.19
272.01,-63.26,-77.46,-77.19
272.51,-63.42,-77.47,-77.2
273.01,-63.57,-77.48,-77.2
273.51,-63.72,-77.48,-77.21
274.01,-63.87,-77.49,-77.21
274.51,-64.02,-77.5,-77.21
275.01,-64.17,-77.51,-77.22
275.51,-64.32,-77.51,-77.22
276.01,-64.47,-77.52,-77.23
276.51,-64.61,-77.53,-77.23
277.01,-64.76,-77.54,-77.24
277.51,-64.9,-77.54,-77.24
278.01,-65.05,-77.55,-77.24
278.51,-65.19,-77.56,-77.25
279.01,-65.33,-77.56,-77.25
279.51,-65.47,-77.57,-77.26
280.01,-65.61,-77.58,-77.26
280.51,-65.75,-77.59,-77.26
281.01,-65.89,-77.59,-77.27
281.51,-66.02,-77.6,-77.27
282.01,-66.16,-77.61,-77.28
282.51,-66.29,-77.61,-77.28
283.01,-66.43,-77.62,-77.28
283.51,-66.56,-77.63,-77.29
284.01,-66.69,-77.64,-77.29
284.51,-66.82,-77.64,-77.3
285.01,-66.95,-77.65,-77.3
285.51,-67.08,-77.66,-77.3
286.01,-67.21,-77.66,-77.31
286.51,-67.34,-77.67,-77.31
287.01,-67.46,-77.68,-77.32
287.51,-67.59,-77.68,-77.32
288.01,-67.71,-77.69,-77.32
288.51,-67.84,-77.7,-77.33
289.01,-67.96,-77.7,-77.33
289.51,-68.08,-77.71,-77.34
290.01,-68.2,-77.72,-77.34
290.51,-68.32,-77.72,-77.34
291.01,-68.44,-77.73,-77.35
291.51,-68.55,-77.74,-77.35
292.01,-68.67,-77.74,-77.35
292.51,-68.78,-77.75,-77.36
293.01,-68.9,-77.76,-77.36
293.51,-69.01,-77.76,-77.37
294.01,-69.12,-77.77,-77.37
294.51,-69.23,-77.78,-77.37
295.01,-69.34,-77.78,-77.38
295.51,-69.45,-77.79,-77.38
296.01,-69.55,-77.8,-77.38
296.51,-69.66,-77.8,-77.39
297.01,-69.77,-77.81,-77.39
297.51,-69.87,-77.81,-77.4
298.01,-69.97,-77.82,-77.4
298.51,-70.07,-77.83,-77.4
299.01,-70.18,-77.83,-77.41
299.51,-70.28,-77.84,-77.41
300.01,-70.37,-77.85,-77.41
300.51,-70.47,-77.85,-77.42
301.01,-70.57,-77.86,-77.42
301.51,-70.66,-77.86,-77.42
302.01,-70.76,-77.87,-77.43
302.51,-70.85,-77.88,-77.43
303.01,-70.95,-77.88,-77.43
303.51,-71.04,-77.89,-77.44
304.01,-71.13,-77.89,-77.44
304.51,-71.22,-77.9,-77.45
305.01,-71.31,-77.91,-77.45
305.51,-71.39,-77.91,-77.45
306.01,-71.48,-77.92,-77.46
306.51,-71.57,-77.92,-77.46
307.01,-71.65,-77.93,-77.46
307.51,-71.74,-77.94,-77.47
308.01,-71.82,-77.94,-77.47
308.51,-71.9,-77.95,-77.47
309.01,-71.98,-77.95,-77.48
309.51,-72.06,-77.96,-77.48
310.01,-72.14,-77.96,-77.48
310.51,-72.22,-77.97,-77.49
311.01,-72.3,-77.98,-77.49
311.51,-72.37,-77.98,-77.49
312.01,-72.45,-77.99,-77.5
312.51,-72.52,-77.99,-77.5
313.01,-72.6,-78,-77.5
313.51,-72.67,-78,-77.51
314.01,-72.74,-78.01,-77.51
314.51,-72.81,-78.02,-77.51
315.01,-72.88,-78.02,-77.52
315.51,-72.95,-78.03,-77.52
316.01,-73.02,-78.03,-77.52
316.51,-73.09,-78.04,-77.53
317.01,-73.15,-78.04,-77.53
317.51,-73.22,-78.05,-77.53
318.01,-73.28,-78.05,-77.54
318.51,-73.35,-78.06,-77.54
319.01,-73.41,-78.07,-77.54
319.51,-73.47,-78.07,-77.55
320.01,-73.54,-78.08,-77.55
320.51,-73.6,-78.08,-77.55
321.01,-73.66,-78.09,-77.56
321.51,-73.72,-78.09,-77.56
322.01,-73.77,-78.1,-77.56
322.51,-73.83,-78.1,-77.56
323.01,-73.89,-78.11,-77.57
323.51,-73.95,-78.11,-77.57
324.01,-74,-78.12,-77.57
324.51,-74.06,-78.12,-77.58
325.01,-74.11,-78.13,-77.58
325.51,-74.16,-78.13,-77.58
326.01,-74.22,-78.14,-77.59
326.51,-74.27,-78.14,-77.59
327.01,-74.32,-78.15,-77.59
327.51,-74.37,-78.16,-77.6
328.01,-74.42,-78.16,-77.6
328.51,-74.47,-78.17,-77.6
329.01,-74.52,-78.17,-77.6
329.51,-74.57,-78.18,-77.61
330.01,-74.62,-78.18,-77.61
330.51,-74.66,-78.19,-77.61
331.01,-74.71,-78.19,-77.62
331.51,-74.76,-78.2,-77.62
332.01,-74.8,-78.2,-77.62
332.51,-74.85,-78.21,-77.63
333.01,-74.89,-78.21,-77.63
333.51,-74.93,-78.22,-77.63
334.01,-74.98,-78.22,-77.63
334.51,-75.02,-78.23,-77.64
335.01,-75.06,-78.23,-77.64
335.51,-75.1,-78.24,-77.64
336.01,-75.14,-78.24,-77.65
336.51,-75.18,-78.24,-77.65
337.01,-75.22,-78.25,-77.65
337.51,-75.26,-78.25,-77.65
338.01,-75.3,-78.26,-77.66
338.51,-75.34,-78.26,-77.66
339.01,-75.37,-78.27,-77.66
339.51,-75.41,-78.27,-77.67
340.01,-75.45,-78.28,-77.67
340.51,-75.48,-78.28,-77.67
341.01,-75.52,-78.29,-77.67
341.51,-75.56,-78.29,-77.68
342.01,-75.59,-78.3,-77.68
342.51,-75.62,-78.3,-77.68
343.01,-75.66,-78.31,-77.69
343.51,-75.69,-78.31,-77.69
344.01,-75.72,-78.32,-77.69
344.51,-75.76,-78.32,-77.69
345.01,-75.79,-78.33,-77.7
345.51,-75.82,-78.33,-77.7
346.01,-75.85,-78.33,-77.7
346.51,-75.88,-78.34,-77.71
347.01,-75.91,-78.34,-77.71
347.51,-75.94,-78.35,-77.71
348.01,-75.97,-78.35,-77.71
348.51,-76,-78.36,-77.72
349.01,-76.03,-78.36,-77.72
349.51,-76.06,-78.37,-77.72
350.01,-76.09,-78.37,-77.72
350.51,-76.12,-78.37,-77.73
351.01,-76.14,-78.38,-77.73
351.51,-76.17,-78.38,-77.73
352.01,-76.2,-78.39,-77.73
352.51,-76.23,-78.39,-77.74
353.01,-76.25,-78.4,-77.74
353.51,-76.28,-78.4,-77.74
354.01,-76.3,-78.41,-77.75
354.51,-76.33,-78.41,-77.75
355.01,-76.35,-78.41,-77.75
355.51,-76.38,-78.42,-77.75
356.01,-76.4,-78.42,-77.76
356.51,-76.43,-78.43,-77.76
357.01,-76.45,-78.43,-77.76
357.51,-76.47,-78.44,-77.76
358.01,-76.5,-78.44,-77.77
358.51,-76.52,-78.44,-77.77
359.01,-76.54,-78.45,-77.77
359.51,-76.57,-78.45,-77.77
360.01,-76.59,-78.46,-77.78
360.51,-76.61,-78.46,-77.78
361.01,-76.63,-78.47,-77.78
361.51,-76.65,-78.47,-77.78
362.01,-76.67,-78.47,-77.79
362.51,-76.7,-78.48,-77.79
363.01,-76.72,-78.48,-77.79
363.51,-76.74,-78.49,-77.79
364.01,-76.76,-78.49,-77.8
364.51,-76.78,-78.49,-77.8
365.01,-76.8,-78.5,-77.8
365.51,-76.82,-78.5,-77.8
366.01,-76.84,-78.51,-77.81
366.51,-76.85,-78.51,-77.81
367.01,-76.87,-78.51,-77.81
367.51,-76.89,-78.52,-77.81
368.01,-76.91,-78.52,-77.82
368.51,-76.93,-78.53,-77.82
369.01,-76.95,-78.53,-77.82
369.51,-76.97,-78.53,-77.82
370.01,-76.98,-78.54,-77.83
370.51,-77,-78.54,-77.83
371.01,-77.02,-78.55,-77.83
371.51,-77.04,-78.55,-77.83
372.01,-77.05,-78.55,-77.83
372.51,-77.07,-78.56,-77.84
373.01,-77.09,-78.56,-77.84
373.51,-77.1,-78.57,-77.84
374.01,-77.12,-78.57,-77.84
374.51,-77.14,-78.57,-77.85
375.01,-77.15,-78.58,-77.85
375.51,-77.17,-78.58,-77.85
376.01,-77.18,-78.58,-77.85
376.51,-77.2,-78.59,-77.86
377.01,-77.21,-78.59,-77.86
377.51,-77.23,-78.6,-77.86
378.01,-77.24,-78.6,-77.86
378.51,-77.26,-78.6,-77.87
379.01,-77.27,-78.61,-77.87
379.51,-77.29,-78.61,-77.87
380.01,-77.3,-78.62,-77.87
380.51,-77.32,-78.62,-77.87
381.01,-77.33,-78.62,-77.88
381.51,-77.35,-78.63,-77.88
382.01,-77.36,-78.63,-77.88
382.51,-77.37,-78.63,-77.88
383.01,-77.39,-78.64,-77.89
383.51,-77.4,-78.64,-77.89
384.01,-77.42,-78.64,-77.89
384.51,-77.43,-78.65,-77.89
385.01,-77.44,-78.65,-77.89
385.51,-77.46,-78.66,-77.9
386.01,-77.47,-78.66,-77.9
386.51,-77.48,-78.66,-77.9
387.01,-77.49,-78.67,-77.9
387.51,-77.51,-78.67,-77.91
388.01,-77.52,-78.67,-77.91
388.51,-77.53,-78.68,-77.91
389.01,-77.54,-78.68,-77.91
389.51,-77.56,-78.68,-77.91
390.01,-77.57,-78.69,-77.92
390.51,-77.58,-78.69,-77.92
391.01,-77.59,-78.69,-77.92
391.51,-77.6,-78.7,-77.92
392.01,-77.62,-78.7,-77.92
392.51,-77.63,-78.7,-77.93
393.01,-77.64,-78.71,-77.93
393.51,-77.65,-78.71,-77.93
394.01,-77.66,-78.72,-77.93
394.51,-77.67,-78.72,-77.94
395.01,-77.69,-78.72,-77.94
395.51,-77.7,-78.73,-77.94
396.01,-77.71,-78.73,-77.94
396.51,-77.72,-78.73,-77.94
397.01,-77.73,-78.74,-77.95
397.51,-77.74,-78.74,-77.95
398.01,-77.75,-78.74,-77.95
398.51,-77.76,-78.75,-77.95
399.01,-77.77,-78.75,-77.95
399.51,-77.78,-78.75,-77.96
400.01,-77.79,-78.76,-77.96
400.51,-77.8,-78.76,-77.96
401.01,-77.81,-78.76,-77.96
401.51,-77.82,-78.77,-77.96
402.01,-77.84,-78.77,-77.97
402.51,-77.85,-78.77,-77.97
403.01,-77.86,-78.78,-77.97
403.51,-77.87,-78.78,-77.97
404.01,-77.88,-78.78,-77.97
404.51,-77.89,-78.79,-77.98
405.01,-77.89,-78.79,-77.98
405.51,-77.9,-78.79,-77.98
406.01,-77.91,-78.8,-77.98
406.51,-77.92,-78.8,-77.98
407.01,-77.93,-78.8,-77.99
407.51,-77.94,-78.8,-77.99
408.01,-77.95,-78.81,-77.99
408.51,-77.96,-78.81,-77.99
409.01,-77.97,-78.81,-77.99
409.51,-77.98,-78.82,-78
410.01,-77.99,-78.82,-78
410.51,-78,-78.82,-78
411.01,-78.01,-78.83,-78
411.51,-78.02,-78.83,-78
412.01,-78.03,-78.83,-78.01
412.51,-78.03,-78.84,-78.01
413.01,-78.04,-78.84,-78.01
413.51,-78.05,-78.84,-78.01
414.01,-78.06,-78.85,-78.01
414.51,-78.07,-78.85,-78.01
415.01,-78.08,-78.85,-78.02
415.51,-78.09,-78.85,-78.02
416.01,-78.1,-78.86,-78.02
416.51,-78.1,-78.86,-78.02
417.01,-78.11,-78.86,-78.02
417.51,-78.12,-78.87,-78.03
418.01,-78.13,-78.87,-78.03
418.51,-78.14,-78.87,-78.03
419.01,-78.15,-78.88,-78.03
419.51,-78.15,-78.88,-78.03
420.01,-78.16,-78.88,-78.03
420.51,-78.17,-78.88,-78.04
421.01,-78.18,-78.89,-78.04
421.51,-78.19,-78.89,-78.04
422.01,-78.19,-78.89,-78.04
422.51,-78.2,-78.9,-78.04
423.01,-78.21,-78.9,-78.05
423.51,-78.22,-78.9,-78.05
424.01,-78.23,-78.91,-78.05
424.51,-78.23,-78.91,-78.05
425.01,-78.24,-78.91,-78.05
425.51,-78.25,-78.91,-78.05
426.01,-78.26,-78.92,-78.06
426.51,-78.27,-78.92,-78.06
427.01,-78.27,-78.92,-78.06
427.51,-78.28,-78.93,-78.06
428.01,-78.29,-78.93,-78.06
428.51,-78.3,-78.93,-78.07
429.01,-78.3,-78.93,-78.07
429.51,-78.31,-78.94,-78.07
430.01,-78.32,-78.94,-78.07
430.51,-78.33,-78.94,-78.07
431.01,-78.33,-78.95,-78.07
431.51,-78.34,-78.95,-78.08
432.01,-78.35,-78.95,-78.08
432.51,-78.35,-78.95,-78.08
433.01,-78.36,-78.96,-78.08
433.51,-78.37,-78.96,-78.08
434.01,-78.38,-78.96,-78.08
434.51,-78.38,-78.96,-78.09
435.01,-78.39,-78.97,-78.09
435.51,-78.4,-78.97,-78.09
436.01,-78.4,-78.97,-78.09
436.51,-78.41,-78.98,-78.09
437.01,-78.42,-78.98,-78.09
437.51,-78.43,-78.98,-78.1
438.01,-78.43,-78.98,-78.1
438.51,-78.44,-78.99,-78.1
439.01,-78.45,-78.99,-78.1
439.51,-78.45,-78.99,-78.1
440.01,-78.46,-78.99,-78.1
440.51,-78.47,-79,-78.11
441.01,-78.47,-79,-78.11
441.51,-78.48,-79,-78.11
442.01,-78.49,-79,-78.11
442.51,-78.49,-79.01,-78.11
443.01,-78.5,-79.01,-78.11
443.51,-78.51,-79.01,-78.12
444.01,-78.51,-79.02,-78.12
444.51,-78.52,-79.02,-78.12
445.01,-78.53,-79.02,-78.12
445.51,-78.53,-79.02,-78.12
446.01,-78.54,-79.03,-78.12
446.51,-78.55,-79.03,-78.13
447.01,-78.55,-79.03,-78.13
447.51,-78.56,-79.03,-78.13
448.01,-78.56,-79.04,-78.13
448.51,-78.57,-79.04,-78.13
449.01,-78.58,-79.04,-78.13
449.51,-78.58,-79.04,-78.14
450.01,-78.59,-79.05,-78.14
450.51,-78.6,-79.05,-78.14
451.01,-78.6,-79.05,-78.14
451.51,-78.61,-79.05,-78.14
452.01,-78.61,-79.06,-78.14
452.51,-78.62,-79.06,-78.14
453.01,-78.63,-79.06,-78.15
453.51,-78.63,-79.06,-78.15
454.01,-78.64,-79.07,-78.15
454.51,-78.65,-79.07,-78.15
455.01,-78.65,-79.07,-78.15
455.51,-78.66,-79.07,-78.15
456.01,-78.66,-79.08,-78.16
456.51,-78.67,-79.08,-78.16
457.01,-78.68,-79.08,-78.16
457.51,-78.68,-79.08,-78.16
458.01,-78.69,-79.09,-78.16
458.51,-78.69,-79.09,-78.16
459.01,-78.7,-79.09,-78.16
459.51,-78.7,-79.09,-78.17
460.01,-78.71,-79.1,-78.17
460.51,-78.72,-79.1,-78.17
461.01,-78.72,-79.1,-78.17
461.51,-78.73,-79.1,-78.17
462.01,-78.73,-79.11,-78.17
462.51,-78.74,-79.11,-78.17
463.01,-78.75,-79.11,-78.18
463.51,-78.75,-79.11,-78.18
464.01,-78.76,-79.11,-78.18
464.51,-78.76,-79.12,-78.18
465.01,-78.77,-79.12,-78.18
465.51,-78.77,-79.12,-78.18
466.01,-78.78,-79.12,-78.18
466.51,-78.78,-79.13,-78.19
467.01,-78.79,-79.13,-78.19
467.51,-78.8,-79.13,-78.19
468.01,-78.8,-79.13,-78.19
468.51,-78.81,-79.14,-78.19
469.01,-78.81,-79.14,-78.19
469.51,-78.82,-79.14,-78.19
470.01,-78.82,-79.14,-78.2
470.51,-78.83,-79.14,-78.2
471.01,-78.83,-79.15,-78.2
471.51,-78.84,-79.15,-78.2
472.01,-78.84,-79.15,-78.2
472.51,-78.85,-79.15,-78.2
473.01,-78.86,-79.16,-78.2
473.51,-78.86,-79.16,-78.21
474.01,-78.87,-79.16,-78.21
474.51,-78.87,-79.16,-78.21
475.01,-78.88,-79.16,-78.21
475.51,-78.88,-79.17,-78.21
476.01,-78.89,-79.17,-78.21
476.51,-78.89,-79.17,-78.21
477.01,-78.9,-79.17,-78.22
477.51,-78.9,-79.18,-78.22
478.01,-78.91,-79.18,-78.22
478.51,-78.91,-79.18,-78.22
479.01,-78.92,-79.18,-78.22
479.51,-78.92,-79.18,-78.22
480.01,-78.93,-79.19,-78.22
480.51,-78.93,-79.19,-78.23
481.01,-78.94,-79.19,-78.23
481.51,-78.94,-79.19,-78.23
482.01,-78.95,-79.2,-78.23
482.51,-78.95,-79.2,-78.23
483.01,-78.96,-79.2,-78.23
483.51,-78.96,-79.2,-78.23
484.01,-78.97,-79.2,-78.23
484.51,-78.97,-79.21,-78.24
485.01,-78.98,-79.21,-78.24
485.51,-78.98,-79.21,-78.24
486.01,-78.99,-79.21,-78.24
486.51,-78.99,-79.21,-78.24
487.01,-79,-79.22,-78.24
487.51,-79,-79.22,-78.24
488.01,-79.01,-79.22,-78.25
488.51,-79.01,-79.22,-78.25
489.01,-79.02,-79.22,-78.25
489.51,-79.02,-79.23,-78.25
490.01,-79.03,-79.23,-78.25
490.51,-79.03,-79.23,-78.25
491.01,-79.04,-79.23,-78.25
491.51,-79.04,-79.24,-78.25
492.01,-79.05,-79.24,-78.26
492.51,-79.05,-79.24,-78.26
493.01,-79.06,-79.24,-78.26
493.51,-79.06,-79.24,-78.26
494.01,-79.07,-79.25,-78.26
494.51,-79.07,-79.25,-78.26
495.01,-79.08,-79.25,-78.26
495.51,-79.08,-79.25,-78.26
496.01,-79.08,-79.25,-78.27
496.51,-79.09,-79.26,-78.27
497.01,-79.09,-79.26,-78.27
497.51,-79.1,-79.26,-78.27
498.01,-79.1,-79.26,-78.27
498.51,-79.11,-79.26,-78.27
499.01,-79.11,-79.27,-78.27
499.51,-79.12,-79.27,-78.27
500.01,-79.12,-79.27,-78.28
500.51,-79.13,-79.27,-78.28
501.01,-79.13,-79.27,-78.28
501.51,-79.14,-79.28,-78.28
502.01,-79.14,-79.28,-78.28
502.51,-79.14,-79.28,-78.28
503.01,-79.15,-79.28,-78.28
503.51,-79.15,-79.28,-78.28
504.01,-79.16,-79.28,-78.29
504.51,-79.16,-79.29,-78.29
505.01,-79.17,-79.29,-78.29
505.51,-79.17,-79.29,-78.29
506.01,-79.18,-79.29,-78.29
506.51,-79.18,-79.29,-78.29
507.01,-79.18,-79.3,-78.29
507.51,-79.19,-79.3,-78.29
508.01,-79.19,-79.3,-78.29
508.51,-79.2,-79.3,-78.3
509.01,-79.2,-79.3,-78.3
509.51,-79.21,-79.31,-78.3
510.01,-79.21,-79.31,-78.3
510.51,-79.21,-79.31,-78.3
511.01,-79.22,-79.31,-78.3
511.51,-79.22,-79.31,-78.3
512.01,-79.23,-79.31,-78.3
512.51,-79.23,-79.32,-78.31
513.01,-79.24,-79.32,-78.31
513.51,-79.24,-79.32,-78.31
514.01,-79.24,-79.32,-78.31
514.51,-79.25,-79.32,-78.31
515.01,-79.25,-79.33,-78.31
515.51,-79.26,-79.33,-78.31
516.01,-79.26,-79.33,-78.31
516.51,-79.26,-79.33,-78.31
517.01,-79.27,-79.33,-78.32
517.51,-79.27,-79.33,-78.32
518.01,-79.28,-79.34,-78.32
518.51,-79.28,-79.34,-78.32
519.01,-79.29,-79.34,-78.32
519.51,-79.29,-79.34,-78.32
520.01,-79.29,-79.34,-78.32
520.51,-79.3,-79.35,-78.32
521.01,-79.3,-79.35,-78.32
521.51,-79.31,-79.35,-78.33
522.01,-79.31,-79.35,-78.33
522.51,-79.31,-79.35,-78.33
523.01,-79.32,-79.35,-78.33
523.51,-79.32,-79.36,-78.33
524.01,-79.33,-79.36,-78.33
524.51,-79.33,-79.36,-78.33
525.01,-79.33,-79.36,-78.33
525.51,-79.34,-79.36,-78.33
526.01,-79.34,-79.36,-78.34
526.51,-79.35,-79.37,-78.34
527.01,-79.35,-79.37,-78.34
527.51,-79.35,-79.37,-78.34
528.01,-79.36,-79.37,-78.34
528.51,-79.36,-79.37,-78.34
529.01,-79.37,-79.38,-78.34
529.51,-79.37,-79.38,-78.34
530.01,-79.37,-79.38,-78.34
530.51,-79.38,-79.38,-78.35
531.01,-79.38,-79.38,-78.35
531.51,-79.38,-79.38,-78.35
532.01,-79.39,-79.39,-78.35
532.51,-79.39,-79.39,-78.35
533.01,-79.4,-79.39,-78.35
533.51,-79.4,-79.39,-78.35
534.01,-79.4,-79.39,-78.35
534.51,-79.41,-79.39,-78.35
535.01,-79.41,-79.4,-78.35
535.51,-79.41,-79.4,-78.36
536.01,-79.42,-79.4,-78.36
536.51,-79.42,-79.4,-78.36
537.01,-79.43,-79.4,-78.36
537.51,-79.43,-79.4,-78.36
538.01,-79.43,-79.41,-78.36
538.51,-79.44,-79.41,-78.36
539.01,-79.44,-79.41,-78.36
539.51,-79.44,-79.41,-78.36
540.01,-79.45,-79.41,-78.37
540.51,-79.45,-79.41,-78.37
541.01,-79.46,-79.41,-78.37
541.51,-79.46,-79.42,-78.37
542.01,-79.46,-79.42,-78.37
542.51,-79.47,-79.42,-78.37
543.01,-79.47,-79.42,-78.37
543.51,-79.47,-79.42,-78.37
544.01,-79.48,-79.42,-78.37
544.51,-79.48,-79.43,-78.37
545.01,-79.48,-79.43,-78.38
545.51,-79.49,-79.43,-78.38
546.01,-79.49,-79.43,-78.38
546.51,-79.5,-79.43,-78.38
547.01,-79.5,-79.43,-78.38
547.51,-79.5,-79.44,-78.38
548.01,-79.51,-79.44,-78.38
548.51,-79.51,-79.44,-78.38
549.01,-79.51,-79.44,-78.38
549.51,-79.52,-79.44,-78.38
550.01,-79.52,-79.44,-78.39
550.51,-79.52,-79.44,-78.39
551.01,-79.53,-79.45,-78.39
551.51,-79.53,-79.45,-78.39
552.01,-79.53,-79.45,-78.39
552.51,-79.54,-79.45,-78.39
553.01,-79.54,-79.45,-78.39
553.51,-79.54,-79.45,-78.39
554.01,-79.55,-79.46,-78.39
554.51,-79.55,-79.46,-78.39
555.01,-79.55,-79.46,-78.39
555.51,-79.56,-79.46,-78.4
556.01,-79.56,-79.46,-78.4
556.51,-79.56,-79.46,-78.4
557.01,-79.57,-79.46,-78.4
557.51,-79.57,-79.47,-78.4
558.01,-79.57,-79.47,-78.4
558.51,-79.58,-79.47,-78.4
559.01,-79.58,-79.47,-78.4
559.51,-79.58,-79.47,-78.4
560.01,-79.59,-79.47,-78.4
560.51,-79.59,-79.47,-78.41
561.01,-79.59,-79.48,-78.41
561.51,-79.6,-79.48,-78.41
562.01,-79.6,-79.48,-78.41
562.51,-79.6,-79.48,-78.41
563.01,-79.61,-79.48,-78.41
563.51,-79.61,-79.48,-78.41
564.01,-79.61,-79.49,-78.41
564.51,-79.62,-79.49,-78.41
565.01,-79.62,-79.49,-78.41
565.51,-79.62,-79.49,-78.41
566.01,-79.63,-79.49,-78.42
566.51,-79.63,-79.49,-78.42
567.01,-79.63,-79.49,-78.42
567.51,-79.64,-79.5,-78.42
568.01,-79.64,-79.5,-78.42
568.51,-79.64,-79.5,-78.42
569.01,-79.65,-79.5,-78.42
569.51,-79.65,-79.5,-78.42
570.01,-79.65,-79.5,-78.42
570.51,-79.66,-79.5,-78.42
571.01,-79.66,-79.5,-78.42
571.51,-79.66,-79.51,-78.43
572.01,-79.66,-79.51,-78.43
572.51,-79.67,-79.51,-78.43
573.01,-79.67,-79.51,-78.43
573.51,-79.67,-79.51,-78.43
574.01,-79.68,-79.51,-78.43
574.51,-79.68,-79.51,-78.43
575.01,-79.68,-79.52,-78.43
575.51,-79.69,-79.52,-78.43
576.01,-79.69,-79.52,-78.43
576.51,-79.69,-79.52,-78.43
577.01,-79.7,-79.52,-78.43
577.51,-79.7,-79.52,-78.44
578.01,-79.7,-79.52,-78.44
578.51,-79.7,-79.53,-78.44
579.01,-79.71,-79.53,-78.44
579.51,-79.71,-79.53,-78.44
580.01,-79.71,-79.53,-78.44
580.51,-79.72,-79.53,-78.44
581.01,-79.72,-79.53,-78.44
581.51,-79.72,-79.53,-78.44
582.01,-79.73,-79.53,-78.44
582.51,-79.73,-79.54,-78.44
583.01,-79.73,-79.54,-78.44
583.51,-79.73,-79.54,-78.45
584.01,-79.74,-79.54,-78.45
584.51,-79.74,-79.54,-78.45
585.01,-79.74,-79.54,-78.45
585.51,-79.75,-79.54,-78.45
586.01,-79.75,-79.55,-78.45
586.51,-79.75,-79.55,-78.45
587.01,-79.75,-79.55,-78.45
587.51,-79.76,-79.55,-78.45
588.01,-79.76,-79.55,-78.45
588.51,-79.76,-79.55,-78.45
589.01,-79.77,-79.55,-78.45
589.51,-79.77,-79.55,-78.46
590.01,-79.77,-79.56,-78.46
590.51,-79.77,-79.56,-78.46
591.01,-79.78,-79.56,-78.46
591.51,-79.78,-79.56,-78.46
592.01,-79.78,-79.56,-78.46
592.51,-79.79,-79.56,-78.46
593.01,-79.79,-79.56,-78.46
593.51,-79.79,-79.56,-78.46
594.01,-79.79,-79.57,-78.46
594.51,-79.8,-79.57,-78.46
595.01,-79.8,-79.57,-78.46
595.51,-79.8,-79.57,-78.47
596.01,-79.81,-79.57,-78.47
596.51,-79.81,-79.57,-78.47
597.01,-79.81,-79.57,-78.47
597.51,-79.81,-79.57,-78.47
598.01,-79.82,-79.58,-78.47
598.51,-79.82,-79.58,-78.47
599.01,-79.82,-79.58,-78.47
599.51,-79.82,-79.58,-78.47
600.01,-79.83,-79.58,-78.47
600.51,-79.83,-79.58,-78.47
601.01,-79.83,-79.58,-78.47
601.51,-79.84,-79.58,-78.47
602.01,-79.84,-79.59,-78.48
602.51,-79.84,-79.59,-78.48
603.01,-79.84,-79.59,-78.48
603.51,-79.85,-79.59,-78.48
604.01,-79.85,-79.59,-78.48
604.51,-79.85,-79.59,-78.48
605.01,-79.85,-79.59,-78.48
605.51,-79.86,-79.59,-78.48
606.01,-79.86,-79.6,-78.48
606.51,-79.86,-79.6,-78.48
607.01,-79.86,-79.6,-78.48
607.51,-79.87,-79.6,-78.48
608.01,-79.87,-79.6,-78.48
608.51,-79.87,-79.6,-78.49
609.01,-79.88,-79.6,-78.49
609.51,-79.88,-79.6,-78.49
610.01,-79.88,-79.6,-78.49
610.51,-79.88,-79.61,-78.49
611.01,-79.89,-79.61,-78.49
611.51,-79.89,-79.61,-78.49
612.01,-79.89,-79.61,-78.49
612.51,-79.89,-79.61,-78.49
613.01,-79.9,-79.61,-78.49
613.51,-79.9,-79.61,-78.49
614.01,-79.9,-79.61,-78.49
614.51,-79.9,-79.62,-78.49
615.01,-79.91,-79.62,-78.5
615.51,-79.91,-79.62,-78.5
616.01,-79.91,-79.62,-78.5
616.51,-79.91,-79.62,-78.5
617.01,-79.92,-79.62,-78.5
617.51,-79.92,-79.62,-78.5
618.01,-79.92,-79.62,-78.5
618.51,-79.92,-79.62,-78.5
619.01,-79.93,-79.63,-78.5
619.51,-79.93,-79.63,-78.5
620.01,-79.93,-79.63,-78.5
620.51,-79.93,-79.63,-78.5
621.01,-79.94,-79.63,-78.5
621.51,-79.94,-79.63,-78.5
622.01,-79.94,-79.63,-78.51
622.51,-79.94,-79.63,-78.51
623.01,-79.95,-79.63,-78.51
623.51,-79.95,-79.64,-78.51
624.01,-79.95,-79.64,-78.51
624.51,-79.95,-79.64,-78.51
625.01,-79.96,-79.64,-78.51
625.51,-79.96,-79.64,-78.51
626.01,-79.96,-79.64,-78.51
626.51,-79.96,-79.64,-78.51
627.01,-79.97,-79.64,-78.51
627.51,-79.97,-79.64,-78.51
628.01,-79.97,-79.65,-78.51
628.51,-79.97,-79.65,-78.51
629.01,-79.97,-79.65,-78.51
629.51,-79.98,-79.65,-78.52
630.01,-79.98,-79.65,-78.52
630.51,-79.98,-79.65,-78.52
631.01,-79.98,-79.65,-78.52
631.51,-79.99,-79.65,-78.52
632.01,-79.99,-79.65,-78.52
632.51,-79.99,-79.66,-78.52
633.01,-79.99,-79.66,-78.52
633.51,-80,-79.66,-78.52
634.01,-80,-79.66,-78.52
634.51,-80,-79.66,-78.52
635.01,-80,-79.66,-78.52
635.51,-80.01,-79.66,-78.52
636.01,-80.01,-79.66,-78.52
636.51,-80.01,-79.66,-78.53
637.01,-80.01,-79.66,-78.53
637.51,-80.01,-79.67,-78.53
638.01,-80.02,-79.67,-78.53
638.51,-80.02,-79.67,-78.53
639.01,-80.02,-79.67,-78.53
639.51,-80.02,-79.67,-78.53
640.01,-80.03,-79.67,-78.53
640.51,-80.03,-79.67,-78.53
641.01,-80.03,-79.67,-78.53
641.51,-80.03,-79.67,-78.53
642.01,-80.03,-79.67,-78.53
642.51,-80.04,-79.68,-78.53
643.01,-80.04,-79.68,-78.53
643.51,-80.04,-79.68,-78.53
644.01,-80.04,-79.68,-78.54
644.51,-80.05,-79.68,-78.54
645.01,-80.05,-79.68,-78.54
645.51,-80.05,-79.68,-78.54
646.01,-80.05,-79.68,-78.54
646.51,-80.05,-79.68,-78.54
647.01,-80.06,-79.68,-78.54
647.51,-80.06,-79.69,-78.54
648.01,-80.06,-79.69,-78.54
648.51,-80.06,-79.69,-78.54
649.01,-80.07,-79.69,-78.54
649.51,-80.07,-79.69,-78.54
650.01,-80.07,-79.69,-78.54
650.51,-80.07,-79.69,-78.54
651.01,-80.07,-79.69,-78.54
651.51,-80.08,-79.69,-78.54
652.01,-80.08,-79.69,-78.55
652.51,-80.08,-79.7,-78.55
653.01,-80.08,-79.7,-78.55
653.51,-80.08,-79.7,-78.55
654.01,-80.09,-79.7,-78.55
654.51,-80.09,-79.7,-78.55
655.01,-80.09,-79.7,-78.55
655.51,-80.09,-79.7,-78.55
656.01,-80.1,-79.7,-78.55
656.51,-80.1,-79.7,-78.55
657.01,-80.1,-79.7,-78.55
657.51,-80.1,-79.71,-78.55
658.01,-80.1,-79.71,-78.55
658.51,-80.11,-79.71,-78.55
659.01,-80.11,-79.71,-78.55
659.51,-80.11,-79.71,-78.55
660.01,-80.11,-79.71,-78.56
660.51,-80.11,-79.71,-78.56
661.01,-80.12,-79.71,-78.56
661.51,-80.12,-79.71,-78.56
662.01,-80.12,-79.71,-78.56
662.51,-80.12,-79.71,-78.56
663.01,-80.12,-79.72,-78.56
663.51,-80.13,-79.72,-78.56
664.01,-80.13,-79.72,-78.56
664.51,-80.13,-79.72,-78.56
665.01,-80.13,-79.72,-78.56
665.51,-80.13,-79.72,-78.56
666.01,-80.14,-79.72,-78.56
666.51,-80.14,-79.72,-78.56
667.01,-80.14,-79.72,-78.56
667.51,-80.14,-79.72,-78.56
668.01,-80.14,-79.73,-78.56
668.51,-80.15,-79.73,-78.57
669.01,-80.15,-79.73,-78.57
669.51,-80.15,-79.73,-78.57
670.01,-80.15,-79.73,-78.57
670.51,-80.15,-79.73,-78.57
671.01,-80.16,-79.73,-78.57
671.51,-80.16,-79.73,-78.57
672.01,-80.16,-79.73,-78.57
672.51,-80.16,-79.73,-78.57
673.01,-80.16,-79.73,-78.57
673.51,-80.17,-79.73,-78.57
674.01,-80.17,-79.74,-78.57
674.51,-80.17,-79.74,-78.57
675.01,-80.17,-79.74,-78.57
675.51,-80.17,-79.74,-78.57
676.01,-80.18,-79.74,-78.57
676.51,-80.18,-79.74,-78.57
677.01,-80.18,-79.74,-78.57
677.51,-80.18,-79.74,-78.58
678.01,-80.18,-79.74,-78.58
678.51,-80.19,-79.74,-78.58
679.01,-80.19,-79.74,-78.58
679.51,-80.19,-79.75,-78.58
680.01,-80.19,-79.75,-78.58
680.51,-80.19,-79.75,-78.58
681.01,-80.19,-79.75,-78.58
681.51,-80.2,-79.75,-78.58
682.01,-80.2,-79.75,-78.58
682.51,-80.2,-79.75,-78.58
683.01,-80.2,-79.75,-78.58
683.51,-80.2,-79.75,-78.58
684.01,-80.21,-79.75,-78.58
684.51,-80.21,-79.75,-78.58
685.01,-80.21,-79.75,-78.58
685.51,-80.21,-79.76,-78.58
686.01,-80.21,-79.76,-78.58
686.51,-80.21,-79.76,-78.59
687.01,-80.22,-79.76,-78.59
687.51,-80.22,-79.76,-78.59
688.01,-80.22,-79.76,-78.59
688.51,-80.22,-79.76,-78.59
689.01,-80.22,-79.76,-78.59
689.51,-80.23,-79.76,-78.59
690.01,-80.23,-79.76,-78.59
690.51,-80.23,-79.76,-78.59
691.01,-80.23,-79.77,-78.59
691.51,-80.23,-79.77,-78.59
692.01,-80.23,-79.77,-78.59
692.51,-80.24,-79.77,-78.59
693.01,-80.24,-79.77,-78.59
693.51,-80.24,-79.77,-78.59
694.01,-80.24,-79.77,-78.59
694.51,-80.24,-79.77,-78.59
695.01,-80.25,-79.77,-78.59
695.51,-80.25,-79.77,-78.6
696.01,-80.25,-79.77,-78.6
696.51,-80.25,-79.77,-78.6
697.01,-80.25,-79.77,-78.6
697.51,-80.25,-79.78,-78.6
698.01,-80.26,-79.78,-78.6
698.51,-80.26,-79.78,-78.6
699.01,-80.26,-79.78,-78.6
699.51,-80.26,-79.78,-78.6
700.01,-80.26,-79.78,-78.6
700.51,-80.26,-79.78,-78.6
701.01,-80.27,-79.78,-78.6
701.51,-80.27,-79.78,-78.6
702.01,-80.27,-79.78,-78.6
702.51,-80.27,-79.78,-78.6
703.01,-80.27,-79.78,-78.6
703.51,-80.27,-79.79,-78.6
704.01,-80.28,-79.79,-78.6
704.51,-80.28,-79.79,-78.6
705.01,-80.28,-79.79,-78.6
705.51,-80.28,-79.79,-78.61
706.01,-80.28,-79.79,-78.61
706.51,-80.29,-79.79,-78.61
707.01,-80.29,-79.79,-78.61
707.51,-80.29,-79.79,-78.61
708.01,-80.29,-79.79,-78.61
708.51,-80.29,-79.79,-78.61
709.01,-80.29,-79.79,-78.61
709.51,-80.3,-79.79,-78.61
710.01,-80.3,-79.8,-78.61
710.51,-80.3,-79.8,-78.61
711.01,-80.3,-79.8,-78.61
711.51,-80.3,-79.8,-78.61
712.01,-80.3,-79.8,-78.61
712.51,-80.31,-79.8,-78.61
713.01,-80.31,-79.8,-78.61
713.51,-80.31,-79.8,-78.61
714.01,-80.31,-79.8,-78.61
714.51,-80.31,-79.8,-78.61
715.01,-80.31,-79.8,-78.61
715.51,-80.31,-79.8,-78.62
716.01,-80.32,-79.8,-78.62
716.51,-80.32,-79.81,-78.62
717.01,-80.32,-79.81,-78.62
717.51,-80.32,-79.81,-78.62
718.01,-80.32,-79.81,-78.62
718.51,-80.32,-79.81,-78.62
719.01,-80.33,-79.81,-78.62
719.51,-80.33,-79.81,-78.62
720.01,-80.33,-79.81,-78.62
720.51,-80.33,-79.81,-78.62
721.01,-80.33,-79.81,-78.62
721.51,-80.33,-79.81,-78.62
722.01,-80.34,-79.81,-78.62
722.51,-80.34,-79.81,-78.62
723.01,-80.34,-79.81,-78.62
723.51,-80.34,-79.82,-78.62
724.01,-80.34,-79.82,-78.62
724.51,-80.34,-79.82,-78.62
725.01,-80.34,-79.82,-78.62
725.51,-80.35,-79.82,-78.62
726.01,-80.35,-79.82,-78.63
726.51,-80.35,-79.82,-78.63
727.01,-80.35,-79.82,-78.63
727.51,-80.35,-79.82,-78.63
728.01,-80.35,-79.82,-78.63
728.51,-80.36,-79.82,-78.63
729.01,-80.36,-79.82,-78.63
729.51,-80.36,-79.82,-78.63
730.01,-80.36,-79.82,-78.63
730.51,-80.36,-79.83,-78.63
731.01,-80.36,-79.83,-78.63
731.51,-80.36,-79.83,-78.63
732.01,-80.37,-79.83,-78.63
732.51,-80.37,-79.83,-78.63
733.01,-80.37,-79.83,-78.63
733.51,-80.37,-79.83,-78.63
734.01,-80.37,-79.83,-78.63
734.51,-80.37,-79.83,-78.63
735.01,-80.38,-79.83,-78.63
735.51,-80.38,-79.83,-78.63
736.01,-80.38,-79.83,-78.63
736.51,-80.38,-79.83,-78.63
737.01,-80.38,-79.83,-78.64
737.51,-80.38,-79.84,-78.64
738.01,-80.38,-79.84,-78.64
738.51,-80.39,-79.84,-78.64
739.01,-80.39,-79.84,-78.64
739.51,-80.39,-79.84,-78.64
740.01,-80.39,-79.84,-78.64
740.51,-80.39,-79.84,-78.64
741.01,-80.39,-79.84,-78.64
741.51,-80.39,-79.84,-78.64
742.01,-80.4,-79.84,-78.64
742.51,-80.4,-79.84,-78.64
743.01,-80.4,-79.84,-78.64
743.51,-80.4,-79.84,-78.64
744.01,-80.4,-79.84,-78.64
744.51,-80.4,-79.84,-78.64
745.01,-80.4,-79.85,-78.64
745.51,-80.41,-79.85,-78.64
746.01,-80.41,-79.85,-78.64
746.51,-80.41,-79.85,-78.64
747.01,-80.41,-79.85,-78.64
747.51,-80.41,-79.85,-78.64
748.01,-80.41,-79.85,-78.64
748.51,-80.41,-79.85,-78.65
749.01,-80.42,-79.85,-78.65
749.51,-80.42,-79.85,-78.65
750.01,-80.42,-79.85,-78.65
750.51,-80.42,-79.85,-78.65
751.01,-80.42,-79.85,-78.65
751.51,-80.42,-79.85,-78.65
752.01,-80.42,-79.85,-78.65
752.51,-80.43,-79.86,-78.65
753.01,-80.43,-79.86,-78.65
753.51,-80.43,-79.86,-78.65
754.01,-80.43,-79.86,-78.65
754.51,-80.43,-79.86,-78.65
755.01,-80.43,-79.86,-78.65
755.51,-80.43,-79.86,-78.65
756.01,-80.44,-79.86,-78.65
756.51,-80.44,-79.86,-78.65
757.01,-80.44,-79.86,-78.65
757.51,-80.44,-79.86,-78.65
758.01,-80.44,-79.86,-78.65
758.51,-80.44,-79.86,-78.65
759.01,-80.44,-79.86,-78.65
759.51,-80.44,-79.86,-78.65
760.01,-80.45,-79.87,-78.65
760.51,-80.45,-79.87,-78.66
761.01,-80.45,-79.87,-78.66
761.51,-80.45,-79.87,-78.66
762.01,-80.45,-79.87,-78.66
762.51,-80.45,-79.87,-78.66
763.01,-80.45,-79.87,-78.66
763.51,-80.46,-79.87,-78.66
764.01,-80.46,-79.87,-78.66
764.51,-80.46,-79.87,-78.66
765.01,-80.46,-79.87,-78.66
765.51,-80.46,-79.87,-78.66
766.01,-80.46,-79.87,-78.66
766.51,-80.46,-79.87,-78.66
767.01,-80.46,-79.87,-78.66
767.51,-80.47,-79.87,-78.66
768.01,-80.47,-79.87,-78.66
768.51,-80.47,-79.88,-78.66
769.01,-80.47,-79.88,-78.66
769.51,-80.47,-79.88,-78.66
770.01,-80.47,-79.88,-78.66
770.51,-80.47,-79.88,-78.66
771.01,-80.47,-79.88,-78.66
771.51,-80.48,-79.88,-78.66
772.01,-80.48,-79.88,-78.66
772.51,-80.48,-79.88,-78.66
773.01,-80.48,-79.88,-78.67
773.51,-80.48,-79.88,-78.67
774.01,-80.48,-79.88,-78.67
774.51,-80.48,-79.88,-78.67
775.01,-80.49,-79.88,-78.67
775.51,-80.49,-79.88,-78.67
776.01,-80.49,-79.88,-78.67
776.51,-80.49,-79.89,-78.67
777.01,-80.49,-79.89,-78.67
777.51,-80.49,-79.89,-78.67
778.01,-80.49,-79.89,-78.67
778.51,-80.49,-79.89,-78.67
779.01,-80.5,-79.89,-78.67
779.51,-80.5,-79.89,-78.67
780.01,-80.5,-79.89,-78.67
780.51,-80.5,-79.89,-78.67
781.01,-80.5,-79.89,-78.67
781.51,-80.5,-79.89,-78.67
782.01,-80.5,-79.89,-78.67
782.51,-80.5,-79.89,-78.67
783.01,-80.5,-79.89,-78.67
783.51,-80.51,-79.89,-78.67
784.01,-80.51,-79.89,-78.67
784.51,-80.51,-79.89,-78.67
785.01,-80.51,-79.9,-78.67
785.51,-80.51,-79.9,-78.67
786.01,-80.51,-79.9,-78.67
786.51,-80.51,-79.9,-78.68
787.01,-80.51,-79.9,-78.68
787.51,-80.52,-79.9,-78.68
788.01,-80.52,-79.9,-78.68
788.51,-80.52,-79.9,-78.68
789.01,-80.52,-79.9,-78.68
789.51,-80.52,-79.9,-78.68
790.01,-80.52,-79.9,-78.68
790.51,-80.52,-79.9,-78.68
791.01,-80.52,-79.9,-78.68
791.51,-80.53,-79.9,-78.68
792.01,-80.53,-79.9,-78.68
792.51,-80.53,-79.9,-78.68
793.01,-80.53,-79.9,-78.68
793.51,-80.53,-79.9,-78.68
794.01,-80.53,-79.91,-78.68
794.51,-80.53,-79.91,-78.68
795.01,-80.53,-79.91,-78.68
795.51,-80.53,-79.91,-78.68
796.01,-80.54,-79.91,-78.68
796.51,-80.54,-79.91,-78.68
797.01,-80.54,-79.91,-78.68
797.51,-80.54,-79.91,-78.68
798.01,-80.54,-79.91,-78.68
798.51,-80.54,-79.91,-78.68
799.01,-80.54,-79.91,-78.68
799.51,-80.54,-79.91,-78.68
800.01,-80.55,-79.91,-78.68
800.51,-80.55,-79.91,-78.69
801.01,-80.55,-79.91,-78.69
801.51,-80.55,-79.91,-78.69
802.01,-80.55,-79.91,-78.69
802.51,-80.55,-79.91,-78.69
803.01,-80.55,-79.92,-78.69
803.51,-80.55,-79.92,-78.69
804.01,-80.55,-79.92,-78.69
804.51,-80.56,-79.92,-78.69
805.01,-80.56,-79.92,-78.69
805.51,-80.56,-79.92,-78.69
806.01,-80.56,-79.92,-78.69
806.51,-80.56,-79.92,-78.69
807.01,-80.56,-79.92,-78.69
807.51,-80.56,-79.92,-78.69
808.01,-80.56,-79.92,-78.69
808.51,-80.56,-79.92,-78.69
809.01,-80.57,-79.92,-78.69
809.51,-80.57,-79.92,-78.69
810.01,-80.57,-79.92,-78.69
810.51,-80.57,-79.92,-78.69
811.01,-80.57,-79.92,-78.69
811.51,-80.57,-79.92,-78.69
812.01,-80.57,-79.92,-78.69
812.51,-80.57,-79.93,-78.69
813.01,-80.57,-79.93,-78.69
813.51,-80.58,-79.93,-78.69
814.01,-80.58,-79.93,-78.69
814.51,-80.58,-79.93,-78.69
815.01,-80.58,-79.93,-78.7
815.51,-80.58,-79.93,-78.7
816.01,-80.58,-79.93,-78.7
816.51,-80.58,-79.93,-78.7
817.01,-80.58,-79.93,-78.7
817.51,-80.58,-79.93,-78.7
818.01,-80.58,-79.93,-78.7
818.51,-80.59,-79.93,-78.7
819.01,-80.59,-79.93,-78.7
819.51,-80.59,-79.93,-78.7
820.01,-80.59,-79.93,-78.7
820.51,-80.59,-79.93,-78.7
821.01,-80.59,-79.93,-78.7
821.51,-80.59,-79.93,-78.7
822.01,-80.59,-79.93,-78.7
822.51,-80.59,-79.94,-78.7
823.01,-80.6,-79.94,-78.7
823.51,-80.6,-79.94,-78.7
824.01,-80.6,-79.94,-78.7
824.51,-80.6,-79.94,-78.7
825.01,-80.6,-79.94,-78.7
825.51,-80.6,-79.94,-78.7
826.01,-80.6,-79.94,-78.7
826.51,-80.6,-79.94,-78.7
827.01,-80.6,-79.94,-78.7
827.51,-80.6,-79.94,-78.7
828.01,-80.61,-79.94,-78.7
828.51,-80.61,-79.94,-78.7
829.01,-80.61,-79.94,-78.7
829.51,-80.61,-79.94,-78.7
830.01,-80.61,-79.94,-78.7
830.51,-80.61,-79.94,-78.71
831.01,-80.61,-79.94,-78.71
831.51,-80.61,-79.94,-78.71
832.01,-80.61,-79.94,-78.71
832.51,-80.61,-79.94,-78.71
833.01,-80.62,-79.95,-78.71
833.51,-80.62,-79.95,-78.71
834.01,-80.62,-79.95,-78.71
834.51,-80.62,-79.95,-78.71
835.01,-80.62,-79.95,-78.71
835.51,-80.62,-79.95,-78.71
836.01,-80.62,-79.95,-78.71
836.51,-80.62,-79.95,-78.71
837.01,-80.62,-79.95,-78.71
837.51,-80.62,-79.95,-78.71
838.01,-80.63,-79.95,-78.71
838.51,-80.63,-79.95,-78.71
839.01,-80.63,-79.95,-78.71
839.51,-80.63,-79.95,-78.71
840.01,-80.63,-79.95,-78.71
840.51,-80.63,-79.95,-78.71
841.01,-80.63,-79.95,-78.71
841.51,-80.63,-79.95,-78.71
842.01,-80.63,-79.95,-78.71
842.51,-80.63,-79.95,-78.71
843.01,-80.64,-79.95,-78.71
843.51,-80.64,-79.96,-78.71
844.01,-80.64,-79.96,-78.71
844.51,-80.64,-79.96,-78.71
845.01,-80.64,-79.96,-78.71
845.51,-80.64,-79.96,-78.71
846.01,-80.64,-79.96,-78.71
846.51,-80.64,-79.96,-78.71
847.01,-80.64,-79.96,-78.72
847.51,-80.64,-79.96,-78.72
848.01,-80.65,-79.96,-78.72
848.51,-80.65,-79.96,-78.72
849.01,-80.65,-79.96,-78.72
849.51,-80.65,-79.96,-78.72
850.01,-80.65,-79.96,-78.72
850.51,-80.65,-79.96,-78.72
851.01,-80.65,-79.96,-78.72
851.51,-80.65,-79.96,-78.72
852.01,-80.65,-79.96,-78.72
852.51,-80.65,-79.96,-78.72
853.01,-80.65,-79.96,-78.72
853.51,-80.66,-79.96,-78.72
854.01,-80.66,-79.96,-78.72
854.51,-80.66,-79.97,-78.72
855.01,-80.66,-79.97,-78.72
855.51,-80.66,-79.97,-78.72
856.01,-80.66,-79.97,-78.72
856.51,-80.66,-79.97,-78.72
857.01,-80.66,-79.97,-78.72
857.51,-80.66,-79.97,-78.72
858.01,-80.66,-79.97,-78.72
858.51,-80.66,-79.97,-78.72
859.01,-80.67,-79.97,-78.72
859.51,-80.67,-79.97,-78.72
860.01,-80.67,-79.97,-78.72
860.51,-80.67,-79.97,-78.72
861.01,-80.67,-79.97,-78.72
861.51,-80.67,-79.97,-78.72
862.01,-80.67,-79.97,-78.72
862.51,-80.67,-79.97,-78.72
863.01,-80.67,-79.97,-78.72
863.51,-80.67,-79.97,-78.72
864.01,-80.67,-79.97,-78.72
864.51,-80.68,-79.97,-78.73
865.01,-80.68,-79.97,-78.73
865.51,-80.68,-79.97,-78.73
866.01,-80.68,-79.98,-78.73
866.51,-80.68,-79.98,-78.73
867.01,-80.68,-79.98,-78.73
867.51,-80.68,-79.98,-78.73
868.01,-80.68,-79.98,-78.73
868.51,-80.68,-79.98,-78.73
869.01,-80.68,-79.98,-78.73
869.51,-80.68,-79.98,-78.73
870.01,-80.69,-79.98,-78.73
870.51,-80.69,-79.98,-78.73
871.01,-80.69,-79.98,-78.73
871.51,-80.69,-79.98,-78.73
872.01,-80.69,-79.98,-78.73
872.51,-80.69,-79.98,-78.73
873.01,-80.69,-79.98,-78.73
873.51,-80.69,-79.98,-78.73
874.01,-80.69,-79.98,-78.73
874.51,-80.69,-79.98,-78.73
875.01,-80.69,-79.98,-78.73
875.51,-80.69,-79.98,-78.73
876.01,-80.7,-79.98,-78.73
876.51,-80.7,-79.98,-78.73
877.01,-80.7,-79.98,-78.73
877.51,-80.7,-79.98,-78.73
878.01,-80.7,-79.99,-78.73
878.51,-80.7,-79.99,-78.73
879.01,-80.7,-79.99,-78.73
879.51,-80.7,-79.99,-78.73
880.01,-80.7,-79.99,-78.73
880.51,-80.7,-79.99,-78.73
881.01,-80.7,-79.99,-78.73
881.51,-80.7,-79.99,-78.73
882.01,-80.71,-79.99,-78.73
882.51,-80.71,-79.99,-78.73
883.01,-80.71,-79.99,-78.74
883.51,-80.71,-79.99,-78.74
884.01,-80.71,-79.99,-78.74
884.51,-80.71,-79.99,-78.74
885.01,-80.71,-79.99,-78.74
885.51,-80.71,-79.99,-78.74
886.01,-80.71,-79.99,-78.74
886.51,-80.71,-79.99,-78.74
887.01,-80.71,-79.99,-78.74
887.51,-80.71,-79.99,-78.74
888.01,-80.72,-79.99,-78.74
888.51,-80.72,-79.99,-78.74
889.01,-80.72,-79.99,-78.74
889.51,-80.72,-79.99,-78.74
890.01,-80.72,-79.99,-78.74
890.51,-80.72,-80,-78.74
891.01,-80.72,-80,-78.74
891.51,-80.72,-80,-78.74
892.01,-80.72,-80,-78.74
892.51,-80.72,-80,-78.74
893.01,-80.72,-80,-78.74
893.51,-80.72,-80,-78.74
894.01,-80.73,-80,-78.74
894.51,-80.73,-80,-78.74
895.01,-80.73,-80,-78.74
895.51,-80.73,-80,-78.74
896.01,-80.73,-80,-78.74
896.51,-80.73,-80,-78.74
897.01,-80.73,-80,-78.74
897.51,-80.73,-80,-78.74
898.01,-80.73,-80,-78.74
898.51,-80.73,-80,-78.74
899.01,-80.73,-80,-78.74
899.51,-80.73,-80,-78.74
900.01,-80.73,-80,-78.74
900.51,-80.74,-80,-78.74
901.01,-80.74,-80,-78.74
901.51,-80.74,-80,-78.74
902.01,-80.74,-80,-78.74
902.51,-80.74,-80,-78.75
903.01,-80.74,-80,-78.75
903.51,-80.74,-80,-78.75
904.01,-80.74,-80.01,-78.75
904.51,-80.74,-80.01,-78.75
905.01,-80.74,-80.01,-78.75
905.51,-80.74,-80.01,-78.75
906.01,-80.74,-80.01,-78.75
906.51,-80.74,-80.01,-78.75
907.01,-80.75,-80.01,-78.75
907.51,-80.75,-80.01,-78.75
908.01,-80.75,-80.01,-78.75
908.51,-80.75,-80.01,-78.75
909.01,-80.75,-80.01,-78.75
909.51,-80.75,-80.01,-78.75
910.01,-80.75,-80.01,-78.75
910.51,-80.75,-80.01,-78.75
911.01,-80.75,-80.01,-78.75
911.51,-80.75,-80.01,-78.75
912.01,-80.75,-80.01,-78.75
912.51,-80.75,-80.01,-78.75
913.01,-80.75,-80.01,-78.75
913.51,-80.76,-80.01,-78.75
914.01,-80.76,-80.01,-78.75
914.51,-80.76,-80.01,-78.75
915.01,-80.76,-80.01,-78.75
915.51,-80.76,-80.01,-78.75
916.01,-80.76,-80.01,-78.75
916.51,-80.76,-80.01,-78.75
917.01,-80.76,-80.01,-78.75
917.51,-80.76,-80.02,-78.75
918.01,-80.76,-80.02,-78.75
918.51,-80.76,-80.02,-78.75
919.01,-80.76,-80.02,-78.75
919.51,-80.76,-80.02,-78.75
920.01,-80.76,-80.02,-78.75
920.51,-80.77,-80.02,-78.75
921.01,-80.77,-80.02,-78.75
921.51,-80.77,-80.02,-78.75
922.01,-80.77,-80.02,-78.75
922.51,-80.77,-80.02,-78.75
923.01,-80.77,-80.02,-78.75
923.51,-80.77,-80.02,-78.75
924.01,-80.77,-80.02,-78.76
924.51,-80.77,-80.02,-78.76
925.01,-80.77,-80.02,-78.76
925.51,-80.77,-80.02,-78.76
926.01,-80.77,-80.02,-78.76
926.51,-80.77,-80.02,-78.76
927.01,-80.77,-80.02,-78.76
927.51,-80.78,-80.02,-78.76
928.01,-80.78,-80.02,-78.76
928.51,-80.78,-80.02,-78.76
929.01,-80.78,-80.02,-78.76
929.51,-80.78,-80.02,-78.76
930.01,-80.78,-80.02,-78.76
930.51,-80.78,-80.02,-78.76
931.01,-80.78,-80.02,-78.76
931.51,-80.78,-80.02,-78.76
932.01,-80.78,-80.03,-78.76
932.51,-80.78,-80.03,-78.76
933.01,-80.78,-80.03,-78.76
933.51,-80.78,-80.03,-78.76
934.01,-80.78,-80.03,-78.76
934.51,-80.79,-80.03,-78.76
935.01,-80.79,-80.03,-78.76
935.51,-80.79,-80.03,-78.76
936.01,-80.79,-80.03,-78.76
936.51,-80.79,-80.03,-78.76
937.01,-80.79,-80.03,-78.76
937.51,-80.79,-80.03,-78.76
938.01,-80.79,-80.03,-78.76
938.51,-80.79,-80.03,-78.76
939.01,-80.79,-80.03,-78.76
939.51,-80.79,-80.03,-78.76
940.01,-80.79,-80.03,-78.76
940.51,-80.79,-80.03,-78.76
941.01,-80.79,-80.03,-78.76
941.51,-80.79,-80.03,-78.76
942.01,-80.8,-80.03,-78.76
942.51,-80.8,-80.03,-78.76
943.01,-80.8,-80.03,-78.76
943.51,-80.8,-80.03,-78.76
944.01,-80.8,-80.03,-78.76
944.51,-80.8,-80.03,-78.76
945.01,-80.8,-80.03,-78.76
945.51,-80.8,-80.03,-78.76
946.01,-80.8,-80.03,-78.76
946.51,-80.8,-80.03,-78.76
947.01,-80.8,-80.03,-78.77
947.51,-80.8,-80.04,-78.77
948.01,-80.8,-80.04,-78.77
948.51,-80.8,-80.04,-78.77
949.01,-80.8,-80.04,-78.77
949.51,-80.81,-80.04,-78.77
950.01,-80.81,-80.04,-78.77
950.51,-80.81,-80.04,-78.77
951.01,-80.81,-80.04,-78.77
951.51,-80.81,-80.04,-78.77
952.01,-80.81,-80.04,-78.77
952.51,-80.81,-80.04,-78.77
953.01,-80.81,-80.04,-78.77
953.51,-80.81,-80.04,-78.77
954.01,-80.81,-80.04,-78.77
954.51,-80.81,-80.04,-78.77
955.01,-80.81,-80.04,-78.77
955.51,-80.81,-80.04,-78.77
956.01,-80.81,-80.04,-78.77
956.51,-80.81,-80.04,-78.77
957.01,-80.81,-80.04,-78.77
957.51,-80.82,-80.04,-78.77
958.01,-80.82,-80.04,-78.77
958.51,-80.82,-80.04,-78.77
959.01,-80.82,-80.04,-78.77
959.51,-80.82,-80.04,-78.77
960.01,-80.82,-80.04,-78.77
960.51,-80.82,-80.04,-78.77
961.01,-80.82,-80.04,-78.77
961.51,-80.82,-80.04,-78.77
962.01,-80.82,-80.04,-78.77
962.51,-80.82,-80.04,-78.77
963.01,-80.82,-80.04,-78.77
963.51,-80.82,-80.05,-78.77
964.01,-80.82,-80.05,-78.77
964.51,-80.82,-80.05,-78.77
965.01,-80.82,-80.05,-78.77
965.51,-80.83,-80.05,-78.77
966.01,-80.83,-80.05,-78.77
966.51,-80.83,-80.05,-78.77
967.01,-80.83,-80.05,-78.77
967.51,-80.83,-80.05,-78.77
968.01,-80.83,-80.05,-78.77
968.51,-80.83,-80.05,-78.77
969.01,-80.83,-80.05,-78.77
969.51,-80.83,-80.05,-78.77
970.01,-80.83,-80.05,-78.77
970.51,-80.83,-80.05,-78.77
971.01,-80.83,-80.05,-78.77
971.51,-80.83,-80.05,-78.77
972.01,-80.83,-80.05,-78.78
972.51,-80.83,-80.05,-78.78
973.01,-80.83,-80.05,-78.78
973.51,-80.84,-80.05,-78.78
974.01,-80.84,-80.05,-78.78
974.51,-80.84,-80.05,-78.78
975.01,-80.84,-80.05,-78.78
975.51,-80.84,-80.05,-78.78
976.01,-80.84,-80.05,-78.78
976.51,-80.84,-80.05,-78.78
977.01,-80.84,-80.05,-78.78
977.51,-80.84,-80.05,-78.78
978.01,-80.84,-80.05,-78.78
978.51,-80.84,-80.05,-78.78
979.01,-80.84,-80.05,-78.78
979.51,-80.84,-80.05,-78.78
980.01,-80.84,-80.05,-78.78
980.51,-80.84,-80.06,-78.78
981.01,-80.84,-80.06,-78.78
981.51,-80.84,-80.06,-78.78
982.01,-80.85,-80.06,-78.78
982.51,-80.85,-80.06,-78.78
983.01,-80.85,-80.06,-78.78
983.51,-80.85,-80.06,-78.78
984.01,-80.85,-80.06,-78.78
984.51,-80.85,-80.06,-78.78
985.01,-80.85,-80.06,-78.78
985.51,-80.85,-80.06,-78.78
986.01,-80.85,-80.06,-78.78
986.51,-80.85,-80.06,-78.78
987.01,-80.85,-80.06,-78.78
987.51,-80.85,-80.06,-78.78
988.01,-80.85,-80.06,-78.78
988.51,-80.85,-80.06,-78.78
989.01,-80.85,-80.06,-78.78
989.51,-80.85,-80.06,-78.78
990.01,-80.85,-80.06,-78.78
990.51,-80.85,-80.06,-78.78
991.01,-80.86,-80.06,-78.78
991.51,-80.86,-80.06,-78.78
992.01,-80.86,-80.06,-78.78
992.51,-80.86,-80.06,-78.78
993.01,-80.86,-80.06,-78.78
993.51,-80.86,-80.06,-78.78
994.01,-80.86,-80.06,-78.78
994.51,-80.86,-80.06,-78.78
995.01,-80.86,-80.06,-78.78
995.51,-80.86,-80.06,-78.78
996.01,-80.86,-80.06,-78.78
996.51,-80.86,-80.06,-78.78
997.01,-80.86,-80.06,-78.78
997.51,-80.86,-80.06,-78.78
998.01,-80.86,-80.06,-78.78
998.51,-80.86,-80.07,-78.78
999.01,-80.86,-80.07,-78.79
999.51,-80.86,-80.07,-78.79
1000.01,-80.87,-80.07,-78.79
