# CRN98 con @ 1.0Hz (beat 10)
# times shifted to give profile starting at 0ms, with stimulus at 50ms
#  time (ms)  Membrane (mV)   [Ca2+]i (mM)              d              f            IK1
       0.005        -80.851    0.000115524     0.00014246       0.915292     0.00288936
       0.505        -80.851    0.000115503     0.00014245       0.915386     0.00288882
       1.005        -80.852    0.000115483     0.00014244       0.915479     0.00288827
       1.505        -80.853    0.000115462     0.00014243       0.915573     0.00288772
       2.005        -80.853    0.000115441     0.00014242       0.915667     0.00288718
       2.505        -80.854     0.00011542     0.00014241        0.91576     0.00288663
       3.005        -80.854    0.000115399      0.0001424       0.915853     0.00288609
       3.505        -80.855    0.000115378     0.00014239       0.915947     0.00288554
       4.005        -80.855    0.000115357     0.00014238        0.91604       0.002885
       4.505        -80.856    0.000115337     0.00014237       0.916133     0.00288446
       5.005        -80.857    0.000115316     0.00014236       0.916226     0.00288392
       5.505        -80.857    0.000115295     0.00014235       0.916319     0.00288338
       6.005        -80.858    0.000115275    0.000142341       0.916411     0.00288285
       6.505        -80.858    0.000115254    0.000142331       0.916504     0.00288231
       7.005        -80.859    0.000115234    0.000142321       0.916596     0.00288178
       7.505        -80.859    0.000115213    0.000142311       0.916689     0.00288124
       8.005        -80.860    0.000115193    0.000142301       0.916781     0.00288071
       8.505        -80.860    0.000115172    0.000142292       0.916873     0.00288017
       9.005        -80.861    0.000115152    0.000142282       0.916965     0.00287964
       9.505        -80.861    0.000115131    0.000142272       0.917057     0.00287911
      10.005        -80.862    0.000115111    0.000142262       0.917149     0.00287858
      10.505        -71.836    0.000115096    0.000234965       0.917241      0.0086108
      11.005        -61.994    0.000115096     0.00067336       0.917331        0.02379
      11.505        -51.462    0.000115111     0.00209432       0.917411      0.0666749
      12.005        -11.410    0.000115158      0.0185149        0.91711       0.549169
      12.505         24.613    0.000115409       0.376661       0.915631        223.027
      13.005         22.878    0.000116929       0.652602       0.914349        694.618
      13.505         18.622    0.000122577       0.790111       0.912995        902.355
      14.005         14.155    0.000134268       0.855694       0.911531        907.485
      14.505         10.257    0.000152677       0.884097       0.909953        833.081
      15.005          7.090    0.000177378        0.89199       0.908282         740.18
      15.505          4.576    0.000207253       0.887872        0.90654        651.852
      16.005          2.582    0.000240901       0.876529        0.90475        574.874
      16.505          0.980    0.000276912       0.860874       0.902928        509.837
      17.005         -0.333    0.000314017       0.842754       0.901084        455.304
      17.505         -1.435    0.000351151       0.823355       0.899228        409.426
      18.005         -2.380    0.000387475       0.803431       0.897365        370.497
      18.505         -3.209    0.000422365       0.783457       0.895498        337.118
      19.005         -3.949    0.000455385       0.763726       0.893631        308.188
      19.505         -4.619    0.000486258       0.744414       0.891765        282.864
      20.005         -5.233    0.000514839       0.725625       0.889903        260.499
      20.505         -5.799    0.000541078       0.707419       0.888045        240.601
      21.005         -6.324    0.000565003       0.689831       0.886192        222.786
      21.505         -6.813    0.000586688       0.672882       0.884347        206.755
      22.005         -7.269    0.000606247       0.656583       0.882508        192.267
      22.505         -7.694    0.000623809        0.64094       0.880678        179.129
      23.005         -8.092    0.000639519       0.625958       0.878856         167.18
      23.505         -8.464    0.000653521       0.611637       0.877042        156.285
      24.005         -8.812     0.00066596       0.597976       0.875237        146.328
      24.505         -9.136    0.000676975       0.584971       0.873441        137.211
      25.005         -9.440    0.000686697       0.572615       0.871655        128.847
      25.505         -9.723    0.000695249       0.560899       0.869877        121.161
      26.005         -9.986    0.000702746       0.549812       0.868109        114.086
      26.505        -10.232    0.000709292       0.539341        0.86635        107.563
      27.005        -10.461    0.000714984       0.529468         0.8646         101.54
      27.505        -10.674    0.000719908       0.520178       0.862858        95.9687
      28.005        -10.872    0.000724143       0.511451       0.861126        90.8087
      28.505        -11.056    0.000727761       0.503266       0.859401        86.0221
      29.005        -11.226    0.000730827       0.495604       0.857685        81.5756
      29.505        -11.384    0.000733399       0.488441       0.855977         77.439
      30.005        -11.530    0.000735528       0.481758       0.854277        73.5853
      30.505        -11.665    0.000737264        0.47553       0.852585        69.9901
      31.005        -11.789    0.000738647       0.469738         0.8509        66.6317
      31.505        -11.903    0.000739715       0.464359       0.849221        63.4902
      32.005        -12.008    0.000740504       0.459373        0.84755        60.5478
      32.505        -12.104    0.000741042       0.454759       0.845886        57.7884
      33.005        -12.191    0.000741359       0.450498       0.844228        55.1975
      33.505        -12.271    0.000741477       0.446571       0.842576        52.7618
      34.005        -12.343     0.00074142        0.44296        0.84093        50.4694
      34.505        -12.408    0.000741207       0.439647        0.83929        48.3093
      35.005        -12.466    0.000740855       0.436617       0.837655        46.2717
      35.505        -12.518     0.00074038       0.433854       0.836026        44.3476
      36.005        -12.564    0.000739797       0.431344       0.834402        42.5288
      36.505        -12.604    0.000739117       0.429072       0.832783        40.8077
      37.005        -12.639    0.000738353       0.427025       0.831169        39.1775
      37.505        -12.668    0.000737513       0.425191       0.829559         37.632
      38.005        -12.693    0.000736608       0.423559       0.827954        36.1654
      38.505        -12.713    0.000735644       0.422117       0.826353        34.7724
      39.005        -12.728     0.00073463       0.420855       0.824756        33.4482
      39.505        -12.740    0.000733571       0.419764       0.823163        32.1884
      40.005        -12.747    0.000732474       0.418834       0.821573        30.9888
      40.505        -12.750    0.000731343       0.418058       0.819988        29.8458
      41.005        -12.750    0.000730182       0.417426       0.818406        28.7557
      41.505        -12.747    0.000728997       0.416931       0.816827        27.7155
      42.005        -12.740     0.00072779       0.416567       0.815252        26.7221
      42.505        -12.730    0.000726564       0.416326        0.81368        25.7728
      43.005        -12.717    0.000725323       0.416202       0.812111         24.865
      43.505        -12.701    0.000724069        0.41619       0.810545        23.9965
      44.005        -12.683    0.000722804       0.416283       0.808981        23.1648
      44.505        -12.662    0.000721531       0.416476       0.807421        22.3682
      45.005        -12.639     0.00072025       0.416764       0.805863        21.6046
      45.505        -12.613    0.000718964       0.417143       0.804308        20.8722
      46.005        -12.586     0.00071767       0.417607       0.802756        20.1695
      46.505        -12.556    0.000716361       0.418153       0.801205        19.4949
      47.005        -12.524    0.000715042       0.418776       0.799658        18.8469
      47.505        -12.491    0.000713718       0.419473       0.798112        18.2243
      48.005        -12.455    0.000712393        0.42024       0.796569        17.6257
      48.505        -12.419    0.000711069       0.421073       0.795029          17.05
      49.005        -12.380    0.000709748       0.421969        0.79349        16.4961
      49.505        -12.340    0.000708432       0.422924       0.791954         15.963
      50.005        -12.299    0.000707121       0.423936       0.790419        15.4496
      50.505        -12.256    0.000705815       0.425002       0.788887        14.9551
      51.005        -12.213    0.000704515       0.426119       0.787357        14.4786
      51.505        -12.168    0.000703221       0.427283       0.785829        14.0193
      52.005        -12.122    0.000701934       0.428493       0.784303        13.5764
      52.505        -12.075    0.000700653       0.429746       0.782779        13.1493
      53.005        -12.027    0.000699379       0.431039       0.781256        12.7372
      53.505        -11.978    0.000698112       0.432371       0.779736        12.3395
      54.005        -11.928    0.000696851       0.433738       0.778217        11.9556
      54.505        -11.878    0.000695597       0.435138       0.776701        11.5849
      55.005        -11.827    0.000694349        0.43657       0.775186        11.2269
      55.505        -11.775    0.000693109       0.438031       0.773673        10.8811
      56.005        -11.723    0.000691875       0.439519       0.772162        10.5469
      56.505        -11.671    0.000690647       0.441032       0.770653         10.224
      57.005        -11.618    0.000689427       0.442568       0.769146        9.91183
      57.505        -11.564    0.000688213       0.444126       0.767641        9.61002
      58.005        -11.510    0.000687006       0.445703       0.766137        9.31818
      58.505        -11.456    0.000685805       0.447298       0.764635        9.03593
      59.005        -11.402    0.000684611       0.448909       0.763135         8.7629
      59.505        -11.348    0.000683424       0.450533       0.761637        8.49875
      60.005        -11.293    0.000682243       0.452171       0.760141        8.24317
      60.505        -11.239    0.000681068       0.453819       0.758647        7.99584
      61.005        -11.184      0.0006799       0.455476       0.757154        7.75647
      61.505        -11.129    0.000678739       0.457141       0.755664        7.52476
      62.005        -11.075    0.000677584       0.458813       0.754175        7.30045
      62.505        -11.020    0.000676435       0.460489       0.752689        7.08329
      63.005        -10.966    0.000675293       0.462168       0.751204        6.87302
      63.505        -10.912    0.000674157       0.463849       0.749721        6.66941
      64.005        -10.858    0.000673027        0.46553        0.74824        6.47223
      64.505        -10.804    0.000671903        0.46721       0.746761        6.28126
      65.005        -10.751    0.000670786       0.468888       0.745284         6.0963
      65.505        -10.697    0.000669674       0.470563       0.743809        5.91714
      66.005        -10.645    0.000668569       0.472232       0.742336         5.7436
      66.505        -10.592    0.000667469       0.473896       0.740865        5.57549
      67.005        -10.540    0.000666376       0.475552       0.739396        5.41263
      67.505        -10.489    0.000665288       0.477199        0.73793        5.25486
      68.005        -10.438    0.000664206       0.478837       0.736465        5.10201
      68.505        -10.388     0.00066313       0.480464       0.735002        4.95391
      69.005        -10.338     0.00066206       0.482079       0.733542        4.81043
      69.505        -10.288    0.000660995       0.483681       0.732083        4.67142
      70.005        -10.240    0.000659936       0.485269       0.730627        4.53673
      70.505        -10.192    0.000658882       0.486842       0.729173        4.40622
      71.005        -10.144    0.000657834       0.488398       0.727721        4.27978
      71.505        -10.097    0.000656791       0.489938       0.726271        4.15727
      72.005        -10.051    0.000655754        0.49146       0.724824        4.03857
      72.505        -10.006    0.000654722       0.492963       0.723379        3.92356
      73.005         -9.962    0.000653696       0.494446       0.721936        3.81214
      73.505         -9.918    0.000652674       0.495908       0.720495        3.70419
      74.005         -9.875    0.000651658       0.497349       0.719057         3.5996
      74.505         -9.833    0.000650646       0.498768       0.717621        3.49827
      75.005         -9.792     0.00064964       0.500164       0.716187        3.40011
      75.505         -9.751    0.000648639       0.501535       0.714756        3.30502
      76.005         -9.712    0.000647642       0.502883       0.713327         3.2129
      76.505         -9.673     0.00064665       0.504205         0.7119        3.12367
      77.005         -9.636    0.000645663       0.505501       0.710476        3.03724
      77.505         -9.599    0.000644681       0.506771       0.709055        2.95353
      78.005         -9.563    0.000643704       0.508013       0.707635        2.87245
      78.505         -9.529    0.000642731       0.509228       0.706219        2.79392
      79.005         -9.495    0.000641762       0.510414       0.704804        2.71788
      79.505         -9.462    0.000640798       0.511572       0.703393        2.64424
      80.005         -9.430    0.000639838         0.5127       0.701983        2.57294
      80.505         -9.399    0.000638883       0.513798       0.700577         2.5039
      81.005         -9.370    0.000637932       0.514866       0.699173        2.43705
      81.505         -9.341    0.000636985       0.515903       0.697771        2.37234
      82.005         -9.313    0.000636042       0.516909       0.696372         2.3097
      82.505         -9.287    0.000635104       0.517883       0.694976        2.24906
      83.005         -9.261    0.000634169       0.518825       0.693582        2.19037
      83.505         -9.237    0.000633238       0.519734       0.692191        2.13357
      84.005         -9.214    0.000632312       0.520611       0.690802         2.0786
      84.505         -9.192    0.000631389       0.521455       0.689416        2.02541
      85.005         -9.171     0.00063047       0.522266       0.688033        1.97395
      85.505         -9.151    0.000629554       0.523042       0.686653        1.92415
      86.005         -9.132    0.000628642       0.523785       0.685275        1.87599
      86.505         -9.114    0.000627734       0.524494         0.6839         1.8294
      87.005         -9.097     0.00062683       0.525169       0.682528        1.78433
      87.505         -9.082    0.000625929       0.525808       0.681158        1.74075
      88.005         -9.068    0.000625031       0.526414       0.679792        1.69861
      88.505         -9.055    0.000624137       0.526984       0.678428        1.65787
      89.005         -9.043    0.000623246       0.527519       0.677067        1.61848
      89.505         -9.032    0.000622358       0.528019       0.675708         1.5804
      90.005         -9.022    0.000621474       0.528483       0.674353        1.54359
      90.505         -9.013    0.000620592       0.528912          0.673        1.50802
      91.005         -9.006    0.000619714       0.529306        0.67165        1.47365
      91.505         -9.000    0.000618839       0.529664       0.670303        1.44044
      92.005         -8.995    0.000617967       0.529986       0.668959        1.40836
      92.505         -8.991    0.000617098       0.530273       0.667618        1.37738
      93.005         -8.988    0.000616231       0.530523       0.666279        1.34745
      93.505         -8.986    0.000615368       0.530738       0.664944        1.31855
      94.005         -8.986    0.000614507       0.530917       0.663611        1.29065
      94.505         -8.986    0.000613649       0.531061       0.662282        1.26372
      95.005         -8.988    0.000612794       0.531168       0.660955        1.23772
      95.505         -8.991    0.000611941       0.531239       0.659632        1.21263
      96.005         -8.995    0.000611091       0.531275       0.658311        1.18843
      96.505         -9.001    0.000610244       0.531275       0.656993        1.16508
      97.005         -9.007    0.000609399       0.531239       0.655678        1.14256
      97.505         -9.015    0.000608556       0.531168       0.654367        1.12085
      98.005         -9.023    0.000607716        0.53106       0.653058        1.09991
      98.505         -9.033    0.000606878       0.530918       0.651752        1.07974
      99.005         -9.044    0.000606042       0.530739        0.65045        1.06029
      99.505         -9.056    0.000605209       0.530525        0.64915        1.04156
     100.005         -9.069    0.000604378       0.530276       0.647854        1.02351
     100.505         -9.084    0.000603549       0.529992        0.64656        1.00614
     101.005         -9.099    0.000602722       0.529672        0.64527       0.989409
     101.505         -9.116    0.000601898       0.529317       0.643983        0.97331
     102.005         -9.133    0.000601075       0.528927       0.642699       0.957821
     102.505         -9.152    0.000600254       0.528502       0.641418       0.942924
     103.005         -9.172    0.000599435       0.528042        0.64014       0.928599
     103.505         -9.193    0.000598619       0.527548       0.638866       0.914831
     104.005         -9.215    0.000597804       0.527019       0.637594       0.901602
     104.505         -9.238     0.00059699       0.526455       0.636326       0.888896
     105.005         -9.262    0.000596179       0.525857       0.635061       0.876697
     105.505         -9.288    0.000595369       0.525225       0.633799       0.864991
     106.005         -9.314    0.000594561       0.524558       0.632541       0.853762
     106.505         -9.341    0.000593755       0.523858       0.631285       0.842996
     107.005         -9.370    0.000592951       0.523123       0.630033        0.83268
     107.505         -9.399    0.000592147       0.522355       0.628785         0.8228
     108.005         -9.430    0.000591346       0.521553       0.627539       0.813343
     108.505         -9.462    0.000590546       0.520718       0.626297       0.804297
     109.005         -9.495    0.000589748       0.519849       0.625058        0.79565
     109.505         -9.528     0.00058895       0.518946       0.623823       0.787389
     110.005         -9.563    0.000588155       0.518011       0.622591       0.779505
     110.505         -9.599     0.00058736       0.517042       0.621362       0.771985
     111.005         -9.636    0.000586568       0.516041       0.620136        0.76482
     111.505         -9.674    0.000585776       0.515006       0.618914       0.757998
     112.005         -9.713    0.000584985       0.513939       0.617696       0.751511
     112.505         -9.753    0.000584196       0.512839       0.616481       0.745349
     113.005         -9.794    0.000583408       0.511707       0.615269       0.739503
     113.505         -9.836    0.000582622       0.510543       0.614061       0.733963
     114.005         -9.879    0.000581836       0.509346       0.612856       0.728722
     114.505         -9.923    0.000581051       0.508117       0.611655       0.723771
     115.005         -9.968    0.000580268       0.506857       0.610458       0.719102
     115.505        -10.014    0.000579485       0.505564       0.609264       0.714708
     116.005        -10.061    0.000578704        0.50424       0.608073       0.710581
     116.505        -10.109    0.000577923       0.502884       0.606886       0.706714
     117.005        -10.158    0.000577144       0.501497       0.605703       0.703099
     117.505        -10.208    0.000576365       0.500078       0.604524       0.699732
     118.005        -10.259    0.000575587       0.498628       0.603348       0.696605
     118.505        -10.311    0.000574811       0.497147       0.602176       0.693711
     119.005        -10.364    0.000574034       0.495635       0.601007       0.691046
     119.505        -10.418    0.000573259       0.494092       0.599842       0.688604
     120.005        -10.473    0.000572485       0.492518       0.598681       0.686378
     120.505        -10.528    0.000571711       0.490914       0.597524       0.684364
     121.005        -10.585    0.000570938       0.489279       0.596371       0.682557
     121.505        -10.643    0.000570165       0.487614       0.595221       0.680952
     122.005        -10.702    0.000569394       0.485918       0.594076       0.679544
     122.505        -10.761    0.000568622       0.484192       0.592934       0.678329
     123.005        -10.822    0.000567852       0.482437       0.591796       0.677303
     123.505        -10.884    0.000567082       0.480651       0.590662        0.67646
     124.005        -10.946    0.000566313       0.478835       0.589532       0.675799
     124.505        -11.010    0.000565544        0.47699       0.588406       0.675313
     125.005        -11.074    0.000564775       0.475115       0.587284       0.675001
     125.505        -11.140    0.000564007        0.47321       0.586167       0.674859
     126.005        -11.206     0.00056324       0.471277       0.585053       0.674882
     126.505        -11.274    0.000562473       0.469314       0.583943       0.675069
     127.005        -11.342    0.000561706       0.467322       0.582838       0.675416
     127.505        -11.411     0.00056094       0.465301       0.581737       0.675919
     128.005        -11.482    0.000560174       0.463251        0.58064       0.676578
     128.505        -11.553    0.000559408       0.461172       0.579547       0.677388
     129.005        -11.625    0.000558643       0.459065       0.578459       0.678347
     129.505        -11.698    0.000557878       0.456929       0.577375       0.679453
     130.005        -11.772    0.000557113       0.454765       0.576295       0.680703
     130.505        -11.847    0.000556348       0.452572        0.57522       0.682096
     131.005        -11.923    0.000555584       0.450352       0.574149       0.683629
     131.505        -12.000     0.00055482       0.448104       0.573083       0.685301
     132.005        -12.078    0.000554055       0.445828       0.572021       0.687109
     132.505        -12.157    0.000553291       0.443524       0.570964       0.689052
     133.005        -12.237    0.000552528       0.441193       0.569911       0.691128
     133.505        -12.317    0.000551764       0.438835       0.568863       0.693336
     134.005        -12.399       0.000551       0.436449        0.56782       0.695674
     134.505        -12.482    0.000550237       0.434037       0.566782       0.698141
     135.005        -12.565    0.000549473       0.431597       0.565748       0.700735
     135.505        -12.650    0.000548709       0.429131        0.56472       0.703456
     136.005        -12.736    0.000547946       0.426639       0.563696       0.706302
     136.505        -12.822    0.000547182        0.42412       0.562677       0.709272
     137.005        -12.910    0.000546418       0.421576       0.561663       0.712365
     137.505        -12.998    0.000545655       0.419005       0.560654       0.715581
     138.005        -13.088    0.000544891       0.416409        0.55965       0.718918
     138.505        -13.178    0.000544127       0.413788       0.558652       0.722376
     139.005        -13.270    0.000543363       0.411141       0.557658       0.725953
     139.505        -13.362    0.000542598       0.408469        0.55667       0.729651
     140.005        -13.456    0.000541834       0.405772       0.555688       0.733467
     140.505        -13.550    0.000541069       0.403051        0.55471       0.737401
     141.005        -13.645    0.000540304       0.400306       0.553738       0.741453
     141.505        -13.742    0.000539539       0.397537       0.552772       0.745623
     142.005        -13.839    0.000538774       0.394744       0.551811        0.74991
     142.505        -13.938    0.000538008       0.391928       0.550856       0.754313
     143.005        -14.037    0.000537243       0.389088       0.549906       0.758834
     143.505        -14.137    0.000536476       0.386226       0.548962        0.76347
     144.005        -14.239     0.00053571       0.383341       0.548024       0.768223
     144.505        -14.341    0.000534943       0.380434       0.547092       0.773092
     145.005        -14.445    0.000534176       0.377505       0.546166       0.778077
     145.505        -14.549    0.000533409       0.374555       0.545246       0.783178
     146.005        -14.655    0.000532641       0.371583       0.544332       0.788395
     146.505        -14.761    0.000531872       0.368591       0.543424       0.793728
     147.005        -14.869    0.000531104       0.365578       0.542523       0.799177
     147.505        -14.977    0.000530335       0.362545       0.541628       0.804742
     148.005        -15.087    0.000529565       0.359493       0.540739       0.810423
     148.505        -15.197    0.000528795       0.356421       0.539856       0.816221
     149.005        -15.309    0.000528025       0.353331       0.538981       0.822136
     149.505        -15.422    0.000527254       0.350223       0.538112       0.828167
     150.005        -15.536    0.000526483       0.347096       0.537249       0.834315
     150.505        -15.650    0.000525711       0.343953       0.536394        0.84058
     151.005        -15.766    0.000524938       0.340792       0.535545       0.846963
     151.505        -15.883    0.000524165       0.337615       0.534703       0.853464
     152.005        -16.001    0.000523392       0.334423       0.533869       0.860082
     152.505        -16.120    0.000522618       0.331215       0.533041       0.866818
     153.005        -16.240    0.000521843       0.327992       0.532221       0.873673
     153.505        -16.362    0.000521068       0.324755       0.531408       0.880647
     154.005        -16.484    0.000520293       0.321505       0.530603       0.887739
     154.505        -16.607    0.000519516       0.318241       0.529805       0.894951
     155.005        -16.732     0.00051874       0.314966       0.529015       0.902282
     155.505        -16.857    0.000517962       0.311678       0.528232       0.909733
     156.005        -16.984    0.000517184        0.30838       0.527458       0.917304
     156.505        -17.111    0.000516405        0.30507       0.526691       0.924994
     157.005        -17.240    0.000515626       0.301752       0.525933       0.932805
     157.505        -17.370    0.000514846       0.298424       0.525182       0.940737
     158.005        -17.501    0.000514066       0.295088        0.52444       0.948789
     158.505        -17.633    0.000513284       0.291744       0.523706       0.956961
     159.005        -17.766    0.000512503       0.288393       0.522981       0.965254
     159.505        -17.900     0.00051172       0.285036       0.522264       0.973668
     160.005        -18.035    0.000510937       0.281673       0.521556       0.982203
     160.505        -18.172    0.000510153       0.278306       0.520856       0.990858
     161.005        -18.309    0.000509369       0.274935       0.520166       0.999633
     161.505        -18.448    0.000508583       0.271561       0.519485        1.00853
     162.005        -18.587    0.000507798       0.268185       0.518812        1.01755
     162.505        -18.728    0.000507011       0.264808       0.518149        1.02668
     163.005        -18.870    0.000506224        0.26143       0.517496        1.03594
     163.505        -19.013    0.000505436       0.258052       0.516852        1.04531
     164.005        -19.156    0.000504648       0.254675       0.516217         1.0548
     164.505        -19.302    0.000503859         0.2513       0.515592        1.06441
     165.005        -19.448    0.000503069       0.247928       0.514977        1.07414
     165.505        -19.595    0.000502278        0.24456       0.514372        1.08399
     166.005        -19.743    0.000501487       0.241197       0.513778        1.09395
     166.505        -19.893    0.000500695       0.237839       0.513193        1.10402
     167.005        -20.043    0.000499903       0.234487       0.512618        1.11421
     167.505        -20.195     0.00049911       0.231143       0.512054        1.12451
     168.005        -20.347    0.000498316       0.227807       0.511501        1.13492
     168.505        -20.501    0.000497522        0.22448       0.510958        1.14544
     169.005        -20.656    0.000496727       0.221163       0.510426        1.15606
     169.505        -20.811    0.000495931       0.217857       0.509905         1.1668
     170.005        -20.968    0.000495135       0.214563       0.509395        1.17763
     170.505        -21.126    0.000494338       0.211282       0.508896        1.18857
     171.005        -21.285    0.000493541       0.208014       0.508408        1.19961
     171.505        -21.445    0.000492742       0.204761       0.507932        1.21075
     172.005        -21.606    0.000491944       0.201524       0.507467        1.22198
     172.505        -21.768    0.000491145       0.198302       0.507014         1.2333
     173.005        -21.931    0.000490345       0.195098       0.506572        1.24472
     173.505        -22.095    0.000489545       0.191912       0.506143        1.25621
     174.005        -22.260    0.000488744       0.188745       0.505725         1.2678
     174.505        -22.426    0.000487942       0.185598       0.505319        1.27946
     175.005        -22.593     0.00048714       0.182471       0.504925        1.29119
     175.505        -22.761    0.000486338       0.179366       0.504544          1.303
     176.005        -22.930    0.000485535       0.176282       0.504174        1.31488
     176.505        -23.100    0.000484732       0.173222       0.503818        1.32681
     177.005        -23.270    0.000483928       0.170186       0.503473        1.33881
     177.505        -23.442    0.000483124       0.167174       0.503141        1.35086
     178.005        -23.615    0.000482319       0.164187       0.502822        1.36296
     178.505        -23.789    0.000481514       0.161226       0.502516         1.3751
     179.005        -23.963    0.000480709       0.158292       0.502222        1.38728
     179.505        -24.139    0.000479903       0.155385       0.501941        1.39949
     180.005        -24.315    0.000479097       0.152505       0.501673        1.41172
     180.505        -24.492     0.00047829       0.149655       0.501418        1.42398
     181.005        -24.670    0.000477484       0.146833       0.501177        1.43625
     181.505        -24.849    0.000476676       0.144041       0.500948        1.44852
     182.005        -25.029    0.000475869       0.141279       0.500732        1.46079
     182.505        -25.210    0.000475062       0.138548        0.50053        1.47305
     183.005        -25.391    0.000474254       0.135848        0.50034        1.48529
     183.505        -25.573    0.000473446        0.13318       0.500164        1.49751
     184.005        -25.756    0.000472637       0.130544       0.500002        1.50969
     184.505        -25.940    0.000471829        0.12794       0.499852        1.52184
     185.005        -26.125     0.00047102       0.125369       0.499716        1.53393
     185.505        -26.310    0.000470212       0.122831       0.499593        1.54596
     186.005        -26.496    0.000469403       0.120327       0.499483        1.55791
     186.505        -26.683    0.000468594       0.117856       0.499387        1.56979
     187.005        -26.871    0.000467785        0.11542       0.499304        1.58158
     187.505        -27.059    0.000466976       0.113017       0.499234        1.59327
     188.005        -27.248    0.000466167       0.110649       0.499178        1.60485
     188.505        -27.437    0.000465358       0.108316       0.499134        1.61631
     189.005        -27.628    0.000464549       0.106017       0.499104        1.62764
     189.505        -27.819     0.00046374       0.103753       0.499087        1.63882
     190.005        -28.010    0.000462932       0.101525       0.499083        1.64985
     190.505        -28.202    0.000462123      0.0993306       0.499091        1.66071
     191.005        -28.395    0.000461314      0.0971717       0.499113        1.67139
     191.505        -28.589    0.000460506      0.0950478       0.499148        1.68188
     192.005        -28.783    0.000459698      0.0929588       0.499195        1.69216
     192.505        -28.977     0.00045889      0.0909048       0.499255        1.70224
     193.005        -29.172    0.000458082      0.0888856       0.499327        1.71208
     193.505        -29.368    0.000457274      0.0869012       0.499412        1.72168
     194.005        -29.564    0.000456467      0.0849515        0.49951        1.73103
     194.505        -29.761     0.00045566      0.0830363       0.499619        1.74011
     195.005        -29.958    0.000454853      0.0811554       0.499741        1.74892
     195.505        -30.155    0.000454046      0.0793088       0.499875        1.75743
     196.005        -30.354     0.00045324       0.077496       0.500021        1.76564
     196.505        -30.552    0.000452435      0.0757171       0.500178        1.77353
     197.005        -30.751    0.000451629      0.0739717       0.500347        1.78109
     197.505        -30.950    0.000450824      0.0722595       0.500527         1.7883
     198.005        -31.150     0.00045002      0.0705803       0.500719        1.79516
     198.505        -31.350    0.000449216      0.0689339       0.500921        1.80165
     199.005        -31.551    0.000448412      0.0673198       0.501135        1.80776
     199.505        -31.752    0.000447609      0.0657378        0.50136        1.81347
     200.005        -31.953    0.000446807      0.0641877       0.501595        1.81878
     200.505        -32.155    0.000446005      0.0626689        0.50184        1.82367
     201.005        -32.357    0.000445203      0.0611812       0.502096        1.82813
     201.505        -32.559    0.000444403      0.0597243       0.502362        1.83215
     202.005        -32.762    0.000443602      0.0582977       0.502638        1.83572
     202.505        -32.965    0.000442803       0.056901       0.502924        1.83883
     203.005        -33.168    0.000442004       0.055534       0.503219        1.84146
     203.505        -33.372    0.000441206      0.0541961       0.503523        1.84362
     204.005        -33.575    0.000440408       0.052887       0.503837        1.84528
     204.505        -33.779    0.000439611      0.0516063       0.504159        1.84644
     205.005        -33.983    0.000438815      0.0503536        0.50449        1.84709
     205.505        -34.188    0.000438019      0.0491284        0.50483        1.84723
     206.005        -34.392    0.000437225      0.0479304       0.505178        1.84685
     206.505        -34.597    0.000436431       0.046759       0.505534        1.84593
     207.005        -34.802    0.000435638      0.0456139       0.505898        1.84449
     207.505        -35.007    0.000434845      0.0444947        0.50627         1.8425
     208.005        -35.212    0.000434054      0.0434009        0.50665        1.83997
     208.505        -35.418    0.000433263       0.042332       0.507036        1.83688
     209.005        -35.623    0.000432473      0.0412878        0.50743        1.83325
     209.505        -35.829    0.000431684      0.0402676       0.507831        1.82907
     210.005        -36.035    0.000430896      0.0392711       0.508239        1.82433
     210.505        -36.241    0.000430109      0.0382979       0.508653        1.81904
     211.005        -36.447    0.000429323      0.0373475       0.509073        1.81319
     211.505        -36.653    0.000428538      0.0364194       0.509499        1.80679
     212.005        -36.859    0.000427753      0.0355134       0.509932        1.79984
     212.505        -37.065     0.00042697      0.0346289        0.51037        1.79234
     213.005        -37.271    0.000426188      0.0337655       0.510813         1.7843
     213.505        -37.477    0.000425406      0.0329228       0.511262        1.77572
     214.005        -37.684    0.000424626      0.0321004       0.511717         1.7666
     214.505        -37.890    0.000423846      0.0312978       0.512176        1.75696
     215.005        -38.096    0.000423068      0.0305147        0.51264        1.74679
     215.505        -38.302    0.000422291      0.0297507       0.513108        1.73612
     216.005        -38.509    0.000421514      0.0290054       0.513581        1.72494
     216.505        -38.715    0.000420739      0.0282783       0.514059        1.71326
     217.005        -38.921    0.000419965       0.027569        0.51454        1.70111
     217.505        -39.127    0.000419192      0.0268773       0.515025        1.68848
     218.005        -39.333     0.00041842      0.0262026       0.515515        1.67539
     218.505        -39.539    0.000417649      0.0255447       0.516007        1.66185
     219.005        -39.745     0.00041688      0.0249031       0.516503        1.64788
     219.505        -39.951    0.000416111      0.0242775       0.517003        1.63349
     220.005        -40.157    0.000415344      0.0236675       0.517505        1.61869
     220.505        -40.362    0.000414577      0.0230729       0.518011         1.6035
     221.005        -40.568    0.000413812      0.0224931        0.51852        1.58794
     221.505        -40.774    0.000413048      0.0219279       0.519031        1.57202
     222.005        -40.979    0.000412285       0.021377       0.519544        1.55576
     222.505        -41.184    0.000411524      0.0208399       0.520061        1.53917
     223.005        -41.389    0.000410763      0.0203165       0.520579        1.52227
     223.505        -41.594    0.000410004      0.0198063         0.5211        1.50509
     224.005        -41.799    0.000409246      0.0193091       0.521623        1.48764
     224.505        -42.004    0.000408489      0.0188245       0.522147        1.46993
     225.005        -42.208    0.000407734      0.0183523       0.522674        1.45198
     225.505        -42.412     0.00040698      0.0178921       0.523202        1.43382
     226.005        -42.617    0.000406227      0.0174436       0.523732        1.41546
     226.505        -42.821    0.000405475      0.0170067       0.524263        1.39692
     227.005        -43.024    0.000404724      0.0165809       0.524796        1.37822
     227.505        -43.228    0.000403975       0.016166        0.52533        1.35938
     228.005        -43.431    0.000403227      0.0157618       0.525865        1.34041
     228.505        -43.634     0.00040248      0.0153679       0.526401        1.32133
     229.005        -43.837    0.000401735      0.0149842       0.526938        1.30217
     229.505        -44.040    0.000400991      0.0146103       0.527476        1.28293
     230.005        -44.243    0.000400248      0.0142461       0.528015        1.26364
     230.505        -44.445    0.000399506      0.0138912       0.528555        1.24431
     231.005        -44.647    0.000398766      0.0135454       0.529095        1.22496
     231.505        -44.849    0.000398027      0.0132086       0.529636        1.20561
     232.005        -45.050     0.00039729      0.0128805       0.530178        1.18627
     232.505        -45.252    0.000396553      0.0125608        0.53072        1.16695
     233.005        -45.453    0.000395818      0.0122494       0.531262        1.14767
     233.505        -45.653    0.000395085       0.011946       0.531805        1.12845
     234.005        -45.854    0.000394353      0.0116505       0.532348         1.1093
     234.505        -46.054    0.000393622      0.0113625       0.532891        1.09022
     235.005        -46.254    0.000392892      0.0110821       0.533434        1.07125
     235.505        -46.454    0.000392164      0.0108088       0.533977        1.05238
     236.005        -46.653    0.000391437      0.0105426        0.53452        1.03363
     236.505        -46.853    0.000390712      0.0102833       0.535064          1.015
     237.005        -47.051    0.000389987      0.0100307       0.535607       0.996522
     237.505        -47.250    0.000389265     0.00978455        0.53615       0.978188
     238.005        -47.448    0.000388543     0.00954479       0.536693       0.960014
     238.505        -47.646    0.000387823     0.00931121       0.537235       0.942006
     239.005        -47.844    0.000387105     0.00908366       0.537778       0.924174
     239.505        -48.041    0.000386387     0.00886198        0.53832       0.906525
     240.005        -48.238    0.000385671       0.008646       0.538862       0.889066
     240.505        -48.435    0.000384957     0.00843559       0.539403       0.871803
     241.005        -48.632    0.000384244      0.0082306       0.539944       0.854743
     241.505        -48.828    0.000383532     0.00803088       0.540485        0.83789
     242.005        -49.023    0.000382822      0.0078363       0.541025       0.821249
     242.505        -49.219    0.000382113     0.00764672       0.541565       0.804825
     243.005        -49.414    0.000381405     0.00746201       0.542104       0.788622
     243.505        -49.609    0.000380699     0.00728205       0.542642       0.772644
     244.005        -49.803    0.000379994      0.0071067        0.54318       0.756892
     244.505        -49.998    0.000379291     0.00693585       0.543718        0.74137
     245.005        -50.191    0.000378589     0.00676938       0.544254       0.726081
     245.505        -50.385    0.000377889     0.00660717        0.54479       0.711024
     246.005        -50.578     0.00037719     0.00644912       0.545326       0.696203
     246.505        -50.771    0.000376492     0.00629511       0.545861       0.681618
     247.005        -50.963    0.000375796     0.00614503       0.546395        0.66727
     247.505        -51.155    0.000375101     0.00599878       0.546928       0.653159
     248.005        -51.347    0.000374407     0.00585627       0.547461       0.639285
     248.505        -51.538    0.000373715     0.00571739       0.547993       0.625649
     249.005        -51.729    0.000373025     0.00558205       0.548524       0.612249
     249.505        -51.920    0.000372336     0.00545016       0.549054       0.599085
     250.005        -52.110    0.000371648     0.00532162       0.549584       0.586155
     250.505        -52.300    0.000370962     0.00519635       0.550113       0.573459
     251.005        -52.489    0.000370277     0.00507427       0.550641       0.560996
     251.505        -52.678    0.000369593     0.00495528       0.551168       0.548763
     252.005        -52.867    0.000368911     0.00483931       0.551694        0.53676
     252.505        -53.055    0.000368231     0.00472627        0.55222       0.524983
     253.005        -53.243    0.000367551      0.0046161       0.552744       0.513431
     253.505        -53.431    0.000366874     0.00450872       0.553268       0.502102
     254.005        -53.618    0.000366197     0.00440405       0.553791       0.490993
     254.505        -53.805    0.000365522     0.00430203       0.554314       0.480103
     255.005        -53.991    0.000364849     0.00420258       0.554835       0.469428
     255.505        -54.177    0.000364177     0.00410564       0.555355       0.458965
     256.005        -54.362    0.000363506     0.00401114       0.555875       0.448713
     256.505        -54.547    0.000362837     0.00391902       0.556394       0.438669
     257.005        -54.732    0.000362169     0.00382922       0.556911       0.428829
     257.505        -54.916    0.000361503     0.00374168       0.557428        0.41919
     258.005        -55.100    0.000360838     0.00365634       0.557944       0.409751
     258.505        -55.283    0.000360175     0.00357314        0.55846       0.400507
     259.005        -55.466    0.000359513     0.00349203       0.558974       0.391456
     259.505        -55.648    0.000358852     0.00341295       0.559487       0.382595
     260.005        -55.830    0.000358193     0.00333585           0.56        0.37392
     260.505        -56.011    0.000357535     0.00326068       0.560512        0.36543
     261.005        -56.192    0.000356879      0.0031874       0.561022        0.35712
     261.505        -56.373    0.000356224     0.00311594       0.561532       0.348988
     262.005        -56.553    0.000355571     0.00304627       0.562041       0.341031
     262.505        -56.732    0.000354919     0.00297834        0.56255       0.333245
     263.005        -56.911    0.000354268      0.0029121       0.563057       0.325628
     263.505        -57.089    0.000353619     0.00284752       0.563563       0.318177
     264.005        -57.267    0.000352972     0.00278454       0.564069       0.310888
     264.505        -57.445    0.000352325     0.00272313       0.564574       0.303759
     265.005        -57.622    0.000351681     0.00266325       0.565077       0.296787
     265.505        -57.798    0.000351037     0.00260486        0.56558       0.289969
     266.005        -57.974    0.000350395     0.00254792       0.566082       0.283301
     266.505        -58.149    0.000349755      0.0024924       0.566584       0.276782
     267.005        -58.324    0.000349116     0.00243825       0.567084       0.270408
     267.505        -58.498    0.000348478     0.00238545       0.567583       0.264177
     268.005        -58.671    0.000347842     0.00233395       0.568082       0.258085
     268.505        -58.844    0.000347207     0.00228373        0.56858        0.25213
     269.005        -59.017    0.000346574     0.00223476       0.569077        0.24631
     269.505        -59.188    0.000345942     0.00218699       0.569573       0.240621
     270.005        -59.360    0.000345312     0.00214041       0.570068       0.235061
     270.505        -59.530    0.000344683     0.00209498       0.570563       0.229628
     271.005        -59.700    0.000344055     0.00205067       0.571056       0.224319
     271.505        -59.869    0.000343429     0.00200745       0.571549       0.219131
     272.005        -60.038    0.000342804      0.0019653       0.572041       0.214062
     272.505        -60.206    0.000342181     0.00192419       0.572532        0.20911
     273.005        -60.373    0.000341559      0.0018841       0.573023       0.204271
     273.505        -60.540    0.000340939     0.00184499       0.573512       0.199545
     274.005        -60.706     0.00034032     0.00180684       0.574001       0.194928
     274.505        -60.872    0.000339702     0.00176964       0.574489       0.190418
     275.005        -61.036    0.000339086     0.00173335       0.574976       0.186014
     275.505        -61.200    0.000338472     0.00169795       0.575462       0.181712
     276.005        -61.363    0.000337858     0.00166341       0.575948        0.17751
     276.505        -61.526    0.000337247     0.00162973       0.576433       0.173407
     277.005        -61.688    0.000336636     0.00159687       0.576917       0.169401
     277.505        -61.849    0.000336027     0.00156482         0.5774       0.165489
     278.005        -62.009     0.00033542     0.00153356       0.577883       0.161669
     278.505        -62.169    0.000334814     0.00150306       0.578364        0.15794
     279.005        -62.327    0.000334209     0.00147331       0.578845       0.154299
     279.505        -62.485    0.000333606     0.00144428       0.579325       0.150745
     280.005        -62.643    0.000333004     0.00141596       0.579805       0.147275
     280.505        -62.799    0.000332404     0.00138834       0.580283       0.143888
     281.005        -62.955    0.000331805     0.00136139       0.580761       0.140582
     281.505        -63.109    0.000331208      0.0013351       0.581239       0.137355
     282.005        -63.263    0.000330612     0.00130944       0.581715       0.134206
     282.505        -63.417    0.000330017     0.00128442       0.582191       0.131132
     283.005        -63.569    0.000329424        0.00126       0.582666       0.128133
     283.505        -63.721    0.000328833     0.00123618        0.58314       0.125206
     284.005        -63.871    0.000328242     0.00121293       0.583614        0.12235
     284.505        -64.021    0.000327653     0.00119025       0.584086       0.119563
     285.005        -64.170    0.000327066     0.00116812       0.584559       0.116844
     285.505        -64.318     0.00032648     0.00114653        0.58503       0.114191
     286.005        -64.465    0.000325896     0.00112546       0.585501       0.111603
     286.505        -64.611    0.000325313      0.0011049       0.585971       0.109078
     287.005        -64.757    0.000324731     0.00108484        0.58644       0.106615
     287.505        -64.901    0.000324151     0.00106527       0.586909       0.104212
     288.005        -65.045    0.000323572     0.00104616       0.587377       0.101868
     288.505        -65.187    0.000322995     0.00102752       0.587844      0.0995817
     289.005        -65.329    0.000322419     0.00100933       0.588311      0.0973518
     289.505        -65.470    0.000321845    0.000991573       0.588777      0.0951768
     290.005        -65.610    0.000321272    0.000974246       0.589242      0.0930556
     290.505        -65.748      0.0003207    0.000957335       0.589706      0.0909868
     291.005        -65.886     0.00032013     0.00094083        0.59017      0.0889693
     291.505        -66.023    0.000319561    0.000924721       0.590634      0.0870018
     292.005        -66.159    0.000318994    0.000908999       0.591096      0.0850831
     292.505        -66.294    0.000318428    0.000893652       0.591558      0.0832122
     293.005        -66.428    0.000317864    0.000878673       0.592019      0.0813878
     293.505        -66.561    0.000317301    0.000864052        0.59248      0.0796089
     294.005        -66.693     0.00031674    0.000849779        0.59294      0.0778743
     294.505        -66.824     0.00031618    0.000835847       0.593399      0.0761831
     295.005        -66.954    0.000315621    0.000822246       0.593858      0.0745342
     295.505        -67.083    0.000315064    0.000808969       0.594316      0.0729265
     296.005        -67.211    0.000314508    0.000796006       0.594774       0.071359
     296.505        -67.338    0.000313954    0.000783352       0.595231      0.0698308
     297.005        -67.464    0.000313401    0.000770997       0.595687       0.068341
     297.505        -67.589     0.00031285    0.000758934       0.596143      0.0668885
     298.005        -67.713      0.0003123    0.000747156       0.596598      0.0654725
     298.505        -67.836    0.000311751    0.000735656       0.597052      0.0640921
     299.005        -67.958    0.000311204    0.000724426       0.597506      0.0627464
     299.505        -68.078    0.000310659    0.000713461       0.597959      0.0614345
     300.005        -68.198    0.000310114    0.000702753       0.598411      0.0601556
     300.505        -68.317    0.000309572    0.000692297       0.598863      0.0589089
     301.005        -68.435     0.00030903    0.000682085       0.599315      0.0576935
     301.505        -68.551     0.00030849    0.000672112       0.599765      0.0565088
     302.005        -68.667    0.000307952    0.000662371       0.600216      0.0553539
     302.505        -68.781    0.000307415    0.000652858       0.600665      0.0542281
     303.005        -68.895    0.000306879    0.000643566       0.601114      0.0531306
     303.505        -69.007    0.000306345    0.000634489       0.601563      0.0520607
     304.005        -69.119    0.000305813    0.000625623        0.60201      0.0510178
     304.505        -69.229    0.000305281    0.000616963       0.602458      0.0500011
     305.005        -69.338    0.000304752    0.000608502       0.602904        0.04901
     305.505        -69.447    0.000304223    0.000600236        0.60335      0.0480439
     306.005        -69.554    0.000303696    0.000592161       0.603796       0.047102
     306.505        -69.660    0.000303171    0.000584271       0.604241      0.0461838
     307.005        -69.765    0.000302647    0.000576562       0.604685      0.0452886
     307.505        -69.869    0.000302124     0.00056903       0.605129       0.044416
     308.005        -69.972    0.000301603    0.000561669       0.605572      0.0435652
     308.505        -70.074    0.000301083    0.000554476       0.606015      0.0427358
     309.005        -70.175    0.000300565    0.000547447       0.606457      0.0419271
     309.505        -70.275    0.000300048    0.000540578       0.606899      0.0411387
     310.005        -70.374    0.000299533    0.000533864        0.60734      0.0403699
     310.505        -70.472    0.000299019    0.000527302        0.60778      0.0396204
     311.005        -70.569    0.000298506    0.000520888        0.60822      0.0388896
     311.505        -70.664    0.000297995    0.000514618       0.608659      0.0381771
     312.005        -70.759    0.000297485     0.00050849       0.609098      0.0374822
     312.505        -70.853    0.000296977    0.000502498       0.609536      0.0368047
     313.005        -70.946     0.00029647    0.000496641       0.609974      0.0361439
     313.505        -71.037    0.000295964    0.000490914       0.610411      0.0354996
     314.005        -71.128     0.00029546    0.000485315       0.610848      0.0348712
     314.505        -71.218    0.000294958     0.00047984       0.611284      0.0342584
     315.005        -71.307    0.000294457    0.000474487       0.611719      0.0336607
     315.505        -71.394    0.000293957    0.000469251       0.612154      0.0330777
     316.005        -71.481    0.000293458    0.000464132       0.612589      0.0325091
     316.505        -71.567    0.000292961    0.000459125       0.613023      0.0319545
     317.005        -71.652    0.000292466    0.000454227       0.613456      0.0314134
     317.505        -71.735    0.000291972    0.000449437       0.613889      0.0308857
     318.005        -71.818    0.000291479    0.000444752       0.614321      0.0303708
     318.505        -71.900    0.000290988    0.000440168       0.614753      0.0298685
     319.005        -71.981    0.000290498    0.000435684       0.615184      0.0293784
     319.505        -72.061     0.00029001    0.000431298       0.615615      0.0289002
     320.005        -72.140    0.000289523    0.000427006       0.616045      0.0284336
     320.505        -72.218    0.000289037    0.000422806       0.616475      0.0279783
     321.005        -72.296    0.000288553    0.000418697       0.616904       0.027534
     321.505        -72.372     0.00028807    0.000414676       0.617333      0.0271004
     322.005        -72.447    0.000287589    0.000410741       0.617761      0.0266772
     322.505        -72.522    0.000287109     0.00040689       0.618189      0.0262642
     323.005        -72.595     0.00028663    0.000403121       0.618616       0.025861
     323.505        -72.668    0.000286153    0.000399431       0.619042      0.0254675
     324.005        -72.740    0.000285677     0.00039582       0.619469      0.0250833
     324.505        -72.811    0.000285203    0.000392285       0.619894      0.0247083
     325.005        -72.881    0.000284729    0.000388824       0.620319      0.0243421
     325.505        -72.950    0.000284258    0.000385435       0.620744      0.0239846
     326.005        -73.018    0.000283788    0.000382118       0.621168      0.0236354
     326.505        -73.086    0.000283319    0.000378869       0.621592      0.0232945
     327.005        -73.152    0.000282851    0.000375688       0.622015      0.0229616
     327.505        -73.218    0.000282385    0.000372573       0.622437      0.0226365
     328.005        -73.283     0.00028192    0.000369522       0.622859      0.0223189
     328.505        -73.347    0.000281457    0.000366534       0.623281      0.0220087
     329.005        -73.411    0.000280995    0.000363608       0.623702      0.0217056
     329.505        -73.473    0.000280535    0.000360741       0.624123      0.0214096
     330.005        -73.535    0.000280075    0.000357932       0.624543      0.0211204
     330.505        -73.596    0.000279617    0.000355181       0.624962      0.0208378
     331.005        -73.656    0.000279161    0.000352486       0.625381      0.0205617
     331.505        -73.715    0.000278706    0.000349845         0.6258      0.0202918
     332.005        -73.774    0.000278252    0.000347257       0.626218      0.0200281
     332.505        -73.832      0.0002778    0.000344721       0.626636      0.0197704
     333.005        -73.889    0.000277349    0.000342236       0.627053      0.0195185
     333.505        -73.946    0.000276899      0.0003398        0.62747      0.0192722
     334.005        -74.001    0.000276451    0.000337413       0.627886      0.0190315
     334.505        -74.056    0.000276004    0.000335073       0.628301      0.0187961
     335.005        -74.111    0.000275558    0.000332779       0.628717       0.018566
     335.505        -74.164    0.000275114    0.000330531       0.629131       0.018341
     336.005        -74.217    0.000274671    0.000328326       0.629546       0.018121
     336.505        -74.269    0.000274229    0.000326164       0.629959      0.0179058
     337.005        -74.321    0.000273789    0.000324045       0.630373      0.0176953
     337.505        -74.372     0.00027335    0.000321967       0.630785      0.0174894
     338.005        -74.422    0.000272912    0.000319929       0.631198       0.017288
     338.505        -74.471    0.000272476     0.00031793       0.631609       0.017091
     339.005        -74.520    0.000272041    0.000315969       0.632021      0.0168983
     339.505        -74.569    0.000271607    0.000314046       0.632432      0.0167097
     340.005        -74.616    0.000271175     0.00031216       0.632842      0.0165251
     340.505        -74.663    0.000270744    0.000310309       0.633252      0.0163445
     341.005        -74.710    0.000270314    0.000308494       0.633661      0.0161677
     341.505        -74.755    0.000269885    0.000306712        0.63407      0.0159947
     342.005        -74.800    0.000269458    0.000304964       0.634479      0.0158254
     342.505        -74.845    0.000269033    0.000303249       0.634887      0.0156596
     343.005        -74.889    0.000268608    0.000301566       0.635294      0.0154972
     343.505        -74.932    0.000268185    0.000299914       0.635702      0.0153383
     344.005        -74.975    0.000267763    0.000298292       0.636108      0.0151827
     344.505        -75.018    0.000267342      0.0002967       0.636514      0.0150302
     345.005        -75.059    0.000266923    0.000295138        0.63692       0.014881
     345.505        -75.101    0.000266505    0.000293604       0.637325      0.0147348
     346.005        -75.141    0.000266088    0.000292098        0.63773      0.0145915
     346.505        -75.181    0.000265672    0.000290619       0.638134      0.0144512
     347.005        -75.221    0.000265258    0.000289167       0.638538      0.0143138
     347.505        -75.260    0.000264845    0.000287741       0.638941      0.0141791
     348.005        -75.299    0.000264433    0.000286341       0.639344      0.0140471
     348.505        -75.337    0.000264023    0.000284966       0.639747      0.0139177
     349.005        -75.374    0.000263614    0.000283615       0.640149       0.013791
     349.505        -75.411    0.000263206    0.000282287        0.64055      0.0136667
     350.005        -75.448    0.000262799    0.000280984       0.640951      0.0135449
     350.505        -75.484    0.000262394    0.000279703       0.641352      0.0134255
     351.005        -75.520     0.00026199    0.000278444       0.641752      0.0133084
     351.505        -75.555    0.000261587    0.000277208       0.642152      0.0131936
     352.005        -75.590    0.000261185    0.000275992       0.642551       0.013081
     352.505        -75.624    0.000260784    0.000274798        0.64295      0.0129706
     353.005        -75.658    0.000260385    0.000273624       0.643348      0.0128623
     353.505        -75.691    0.000259987     0.00027247       0.643746      0.0127561
     354.005        -75.724     0.00025959    0.000271336       0.644143      0.0126519
     354.505        -75.757    0.000259195    0.000270221        0.64454      0.0125497
     355.005        -75.789      0.0002588    0.000269125       0.644937      0.0124494
     355.505        -75.821    0.000258407    0.000268047       0.645333       0.012351
     356.005        -75.852    0.000258015    0.000266987       0.645728      0.0122544
     356.505        -75.883    0.000257625    0.000265945       0.646123      0.0121596
     357.005        -75.913    0.000257235     0.00026492       0.646518      0.0120665
     357.505        -75.944    0.000256847    0.000263912       0.646912      0.0119752
     358.005        -75.973     0.00025646    0.000262921       0.647306      0.0118856
     358.505        -76.003    0.000256074    0.000261945       0.647699      0.0117975
     359.005        -76.032    0.000255689    0.000260986       0.648092      0.0117111
     359.505        -76.060    0.000255305    0.000260041       0.648485      0.0116262
     360.005        -76.089    0.000254923    0.000259113       0.648877      0.0115429
     360.505        -76.117    0.000254542    0.000258198       0.649268       0.011461
     361.005        -76.144    0.000254162    0.000257299       0.649659      0.0113806
     361.505        -76.172    0.000253783    0.000256414        0.65005      0.0113016
     362.005        -76.198    0.000253405    0.000255542        0.65044       0.011224
     362.505        -76.225    0.000253029    0.000254685        0.65083      0.0111477
     363.005        -76.251    0.000252653     0.00025384        0.65122      0.0110728
     363.505        -76.277    0.000252279    0.000253009       0.651608      0.0109991
     364.005        -76.303    0.000251906    0.000252191       0.651997      0.0109268
     364.505        -76.328    0.000251534    0.000251385       0.652385      0.0108556
     365.005        -76.353    0.000251163    0.000250591       0.652772      0.0107857
     365.505        -76.378    0.000250794     0.00024981        0.65316       0.010717
     366.005        -76.402    0.000250425     0.00024904       0.653546      0.0106494
     366.505        -76.427    0.000250058    0.000248282       0.653933      0.0105829
     367.005        -76.450    0.000249692    0.000247536       0.654318      0.0105176
     367.505        -76.474    0.000249327      0.0002468       0.654704      0.0104533
     368.005        -76.497    0.000248963    0.000246075       0.655089      0.0103901
     368.505        -76.520      0.0002486    0.000245361       0.655473      0.0103279
     369.005        -76.543    0.000248238    0.000244657       0.655857      0.0102668
     369.505        -76.565    0.000247877    0.000243964       0.656241      0.0102066
     370.005        -76.588    0.000247518    0.000243281       0.656624      0.0101474
     370.505        -76.610    0.000247159    0.000242607       0.657007      0.0100891
     371.005        -76.631    0.000246802    0.000241943       0.657389      0.0100318
     371.505        -76.653    0.000246446    0.000241289       0.657771     0.00997537
     372.005        -76.674    0.000246091    0.000240644       0.658153     0.00991983
     372.505        -76.695    0.000245737    0.000240007       0.658534     0.00986516
     373.005        -76.716    0.000245384     0.00023938       0.658914     0.00981134
     373.505        -76.736    0.000245032    0.000238762       0.659295     0.00975836
     374.005        -76.756    0.000244681    0.000238152       0.659674     0.00970618
     374.505        -76.776    0.000244332     0.00023755       0.660054      0.0096548
     375.005        -76.796    0.000243983    0.000236957       0.660433     0.00960421
     375.505        -76.816    0.000243635    0.000236371       0.660811     0.00955437
     376.005        -76.835    0.000243289    0.000235794       0.661189     0.00950528
     376.505        -76.854    0.000242943    0.000235224       0.661567     0.00945693
     377.005        -76.873    0.000242599    0.000234662       0.661944     0.00940929
     377.505        -76.892    0.000242256    0.000234107       0.662321     0.00936235
     378.005        -76.911    0.000241913     0.00023356       0.662697      0.0093161
     378.505        -76.929    0.000241572     0.00023302       0.663073     0.00927052
     379.005        -76.947    0.000241232    0.000232487       0.663448      0.0092256
     379.505        -76.965    0.000240893     0.00023196       0.663824     0.00918133
     380.005        -76.983    0.000240555    0.000231441       0.664198     0.00913769
     380.505        -77.001    0.000240218    0.000230928       0.664572     0.00909466
     381.005        -77.018    0.000239882    0.000230421       0.664946     0.00905225
     381.505        -77.035    0.000239547    0.000229921        0.66532     0.00901043
     382.005        -77.052    0.000239213    0.000229428       0.665693     0.00896919
     382.505        -77.069     0.00023888     0.00022894       0.666065     0.00892852
     383.005        -77.086    0.000238548    0.000228458       0.666437     0.00888841
     383.505        -77.102    0.000238217    0.000227983       0.666809     0.00884884
     384.005        -77.119    0.000237887    0.000227513        0.66718     0.00880982
     384.505        -77.135    0.000237558    0.000227048       0.667551     0.00877132
     385.005        -77.151     0.00023723     0.00022659       0.667922     0.00873334
     385.505        -77.167    0.000236903    0.000226137       0.668292     0.00869586
     386.005        -77.183    0.000236577    0.000225689       0.668661     0.00865888
     386.505        -77.198    0.000236252    0.000225247        0.66903     0.00862238
     387.005        -77.214    0.000235928    0.000224809       0.669399     0.00858636
     387.505        -77.229    0.000235605    0.000224377       0.669768     0.00855081
     388.005        -77.244    0.000235283     0.00022395       0.670136     0.00851571
     388.505        -77.259    0.000234962    0.000223528       0.670503     0.00848107
     389.005        -77.274    0.000234642     0.00022311        0.67087     0.00844686
     389.505        -77.288    0.000234323    0.000222697       0.671237     0.00841309
     390.005        -77.303    0.000234005    0.000222289       0.671603     0.00837974
     390.505        -77.317    0.000233687    0.000221886       0.671969     0.00834681
     391.005        -77.332    0.000233371    0.000221487       0.672335     0.00831428
     391.505        -77.346    0.000233056    0.000221092         0.6727     0.00828215
     392.005        -77.360    0.000232742    0.000220702       0.673064     0.00825042
     392.505        -77.374    0.000232428    0.000220316       0.673429     0.00821907
     393.005        -77.388    0.000232116    0.000219934       0.673792      0.0081881
     393.505        -77.401    0.000231804    0.000219556       0.674156      0.0081575
     394.005        -77.415    0.000231494    0.000219182       0.674519     0.00812726
     394.505        -77.428    0.000231184    0.000218812       0.674882     0.00809738
     395.005        -77.441    0.000230876    0.000218446       0.675244     0.00806785
     395.505        -77.455    0.000230568    0.000218084       0.675606     0.00803866
     396.005        -77.468    0.000230261    0.000217726       0.675967     0.00800981
     396.505        -77.481    0.000229955    0.000217371       0.676328     0.00798129
     397.005        -77.493     0.00022965     0.00021702       0.676689      0.0079531
     397.505        -77.506    0.000229346    0.000216672       0.677049     0.00792523
     398.005        -77.519    0.000229043    0.000216328       0.677408     0.00789767
     398.505        -77.531    0.000228741    0.000215987       0.677768     0.00787041
     399.005        -77.544    0.000228439     0.00021565       0.678127     0.00784347
     399.505        -77.556    0.000228139    0.000215316       0.678485     0.00781681
     400.005        -77.568     0.00022784    0.000214985       0.678844     0.00779045
     400.505        -77.580    0.000227541    0.000214658       0.679201     0.00776438
     401.005        -77.592    0.000227243    0.000214334       0.679559     0.00773858
     401.505        -77.604    0.000226946    0.000214012       0.679916     0.00771307
     402.005        -77.616     0.00022665    0.000213694       0.680272     0.00768782
     402.505        -77.628    0.000226355    0.000213379       0.680628     0.00766284
     403.005        -77.639    0.000226061    0.000213067       0.680984     0.00763812
     403.505        -77.651    0.000225768    0.000212757       0.681339     0.00761367
     404.005        -77.662    0.000225475    0.000212451       0.681694     0.00758946
     404.505        -77.674    0.000225184    0.000212147       0.682049      0.0075655
     405.005        -77.685    0.000224893    0.000211846       0.682403     0.00754179
     405.505        -77.696    0.000224603    0.000211548       0.682757     0.00751832
     406.005        -77.707    0.000224314    0.000211253        0.68311     0.00749508
     406.505        -77.718    0.000224026     0.00021096       0.683463     0.00747208
     407.005        -77.729    0.000223739    0.000210669       0.683816      0.0074493
     407.505        -77.740    0.000223452    0.000210382       0.684168     0.00742675
     408.005        -77.751    0.000223167    0.000210096        0.68452     0.00740442
     408.505        -77.762    0.000222882    0.000209814       0.684871      0.0073823
     409.005        -77.772    0.000222598    0.000209533       0.685222      0.0073604
     409.505        -77.783    0.000222315    0.000209255       0.685573     0.00733871
     410.005        -77.793    0.000222033     0.00020898       0.685923     0.00731723
     410.505        -77.804    0.000221752    0.000208706       0.686273     0.00729595
     411.005        -77.814    0.000221471    0.000208435       0.686622     0.00727486
     411.505        -77.824    0.000221191    0.000208166       0.686971     0.00725398
     412.005        -77.835    0.000220912      0.0002079        0.68732     0.00723329
     412.505        -77.845    0.000220634    0.000207635       0.687668     0.00721278
     413.005        -77.855    0.000220357    0.000207373       0.688016     0.00719247
     413.505        -77.865    0.000220081    0.000207113       0.688364     0.00717234
     414.005        -77.875    0.000219805    0.000206855       0.688711     0.00715239
     414.505        -77.885     0.00021953    0.000206598       0.689057     0.00713262
     415.005        -77.894    0.000219256    0.000206344       0.689404     0.00711302
     415.505        -77.904    0.000218983    0.000206092       0.689749      0.0070936
     416.005        -77.914    0.000218711    0.000205842       0.690095     0.00707435
     416.505        -77.923    0.000218439    0.000205594        0.69044     0.00705526
     417.005        -77.933    0.000218168    0.000205348       0.690785     0.00703634
     417.505        -77.942    0.000217898    0.000205103       0.691129     0.00701759
     418.005        -77.952    0.000217629     0.00020486       0.691473     0.00699899
     418.505        -77.961     0.00021736     0.00020462       0.691817     0.00698055
     419.005        -77.970    0.000217093    0.000204381        0.69216     0.00696226
     419.505        -77.980    0.000216826    0.000204143       0.692503     0.00694413
     420.005        -77.989     0.00021656    0.000203908       0.692845     0.00692614
     420.505        -77.998    0.000216295    0.000203674       0.693187     0.00690831
     421.005        -78.007     0.00021603    0.000203442       0.693529     0.00689062
     421.505        -78.016    0.000215766    0.000203211        0.69387     0.00687308
     422.005        -78.025    0.000215503    0.000202983       0.694211     0.00685567
     422.505        -78.034    0.000215241    0.000202755       0.694552     0.00683841
     423.005        -78.043    0.000214979     0.00020253       0.694892     0.00682128
     423.505        -78.052    0.000214719    0.000202306       0.695232     0.00680429
     424.005        -78.060    0.000214459    0.000202083       0.695571     0.00678744
     424.505        -78.069      0.0002142    0.000201862        0.69591     0.00677071
     425.005        -78.078    0.000213941    0.000201643       0.696249     0.00675411
     425.505        -78.086    0.000213683    0.000201425       0.696587     0.00673765
     426.005        -78.095    0.000213426    0.000201208       0.696925     0.00672131
     426.505        -78.104     0.00021317    0.000200993       0.697262     0.00670509
     427.005        -78.112    0.000212915     0.00020078       0.697599     0.00668899
     427.505        -78.120     0.00021266    0.000200567       0.697936     0.00667302
     428.005        -78.129    0.000212406    0.000200356       0.698273     0.00665717
     428.505        -78.137    0.000212153    0.000200147       0.698609     0.00664143
     429.005        -78.145      0.0002119    0.000199939       0.698944     0.00662581
     429.505        -78.154    0.000211648    0.000199732       0.699279      0.0066103
     430.005        -78.162    0.000211397    0.000199527       0.699614     0.00659491
     430.505        -78.170    0.000211147    0.000199322       0.699949     0.00657963
     431.005        -78.178    0.000210897     0.00019912       0.700283     0.00656446
     431.505        -78.186    0.000210648    0.000198918       0.700617     0.00654939
     432.005        -78.194      0.0002104    0.000198718        0.70095     0.00653443
     432.505        -78.202    0.000210153    0.000198519       0.701283     0.00651958
     433.005        -78.210    0.000209906    0.000198321       0.701615     0.00650484
     433.505        -78.218     0.00020966    0.000198124       0.701948     0.00649019
     434.005        -78.226    0.000209414    0.000197928        0.70228     0.00647565
     434.505        -78.234     0.00020917    0.000197734       0.702611     0.00646121
     435.005        -78.242    0.000208926    0.000197541       0.702942     0.00644686
     435.505        -78.249    0.000208682    0.000197349       0.703273     0.00643262
     436.005        -78.257     0.00020844    0.000197158       0.703603     0.00641847
     436.505        -78.265    0.000208198    0.000196968       0.703933     0.00640441
     437.005        -78.272    0.000207957     0.00019678       0.704263     0.00639045
     437.505        -78.280    0.000207716    0.000196592       0.704592     0.00637658
     438.005        -78.287    0.000207476    0.000196406       0.704921      0.0063628
     438.505        -78.295    0.000207237     0.00019622        0.70525     0.00634912
     439.005        -78.302    0.000206999    0.000196036       0.705578     0.00633552
     439.505        -78.310    0.000206761    0.000195853       0.705906     0.00632201
     440.005        -78.317    0.000206524     0.00019567       0.706233     0.00630859
     440.505        -78.325    0.000206287    0.000195489        0.70656     0.00629526
     441.005        -78.332    0.000206051    0.000195309       0.706887     0.00628201
     441.505        -78.339    0.000205816     0.00019513       0.707213     0.00626884
     442.005        -78.347    0.000205582    0.000194951       0.707539     0.00625576
     442.505        -78.354    0.000205348    0.000194774       0.707865     0.00624276
     443.005        -78.361    0.000205115    0.000194598        0.70819     0.00622984
     443.505        -78.368    0.000204882    0.000194422       0.708515       0.006217
     444.005        -78.375    0.000204651    0.000194248       0.708839     0.00620424
     444.505        -78.383    0.000204419    0.000194075       0.709164     0.00619156
     445.005        -78.390    0.000204189    0.000193902       0.709487     0.00617896
     445.505        -78.397    0.000203959     0.00019373       0.709811     0.00616643
     446.005        -78.404     0.00020373     0.00019356       0.710134     0.00615398
     446.505        -78.411    0.000203501     0.00019339       0.710457      0.0061416
     447.005        -78.418    0.000203273    0.000193221       0.710779      0.0061293
     447.505        -78.425    0.000203046    0.000193053       0.711101     0.00611707
     448.005        -78.432    0.000202819    0.000192885       0.711423     0.00610491
     448.505        -78.438    0.000202593    0.000192719       0.711744     0.00609283
     449.005        -78.445    0.000202368    0.000192553       0.712065     0.00608081
     449.505        -78.452    0.000202143    0.000192389       0.712385     0.00606887
     450.005        -78.459    0.000201919    0.000192225       0.712705     0.00605699
     450.505        -78.466    0.000201696    0.000192062       0.713025     0.00604519
     451.005        -78.472    0.000201473      0.0001919       0.713345     0.00603345
     451.505        -78.479     0.00020125    0.000191738       0.713664     0.00602178
     452.005        -78.486    0.000201029    0.000191577       0.713983     0.00601017
     452.505        -78.492    0.000200808    0.000191418       0.714301     0.00599863
     453.005        -78.499    0.000200587    0.000191259       0.714619     0.00598716
     453.505        -78.506    0.000200368      0.0001911       0.714937     0.00597575
     454.005        -78.512    0.000200149    0.000190943       0.715254      0.0059644
     454.505        -78.519     0.00019993    0.000190786       0.715571     0.00595312
     455.005        -78.525    0.000199712     0.00019063       0.715888      0.0059419
     455.505        -78.532    0.000199495    0.000190475       0.716204     0.00593074
     456.005        -78.538    0.000199278     0.00019032        0.71652     0.00591964
     456.505        -78.545    0.000199062    0.000190166       0.716835     0.00590861
     457.005        -78.551    0.000198846    0.000190013       0.717151     0.00589763
     457.505        -78.558    0.000198631    0.000189861       0.717465     0.00588671
     458.005        -78.564    0.000198417    0.000189709        0.71778     0.00587585
     458.505        -78.570    0.000198203    0.000189558       0.718094     0.00586505
     459.005        -78.577     0.00019799    0.000189408       0.718408     0.00585431
     459.505        -78.583    0.000197777    0.000189258       0.718721     0.00584362
     460.005        -78.589    0.000197566     0.00018911       0.719034     0.00583299
     460.505        -78.595    0.000197354    0.000188961       0.719347     0.00582242
     461.005        -78.602    0.000197143    0.000188814        0.71966      0.0058119
     461.505        -78.608    0.000196933    0.000188667       0.719972     0.00580144
     462.005        -78.614    0.000196723    0.000188521       0.720283     0.00579103
     462.505        -78.620    0.000196514    0.000188375       0.720595     0.00578068
     463.005        -78.626    0.000196306     0.00018823       0.720906     0.00577037
     463.505        -78.633    0.000196098    0.000188086       0.721216     0.00576013
     464.005        -78.639    0.000195891    0.000187942       0.721527     0.00574993
     464.505        -78.645    0.000195684    0.000187799       0.721837     0.00573979
     465.005        -78.651    0.000195478    0.000187657       0.722146     0.00572969
     465.505        -78.657    0.000195272    0.000187515       0.722456     0.00571965
     466.005        -78.663    0.000195067    0.000187374       0.722764     0.00570966
     466.505        -78.669    0.000194862    0.000187234       0.723073     0.00569972
     467.005        -78.675    0.000194658    0.000187094       0.723381     0.00568983
     467.505        -78.681    0.000194455    0.000186954       0.723689     0.00567999
     468.005        -78.687    0.000194252    0.000186816       0.723997     0.00567019
     468.505        -78.692     0.00019405    0.000186678       0.724304     0.00566045
     469.005        -78.698    0.000193848     0.00018654       0.724611     0.00565075
     469.505        -78.704    0.000193647    0.000186403       0.724917      0.0056411
     470.005        -78.710    0.000193446    0.000186267       0.725223      0.0056315
     470.505        -78.716    0.000193246    0.000186131       0.725529     0.00562195
     471.005        -78.722    0.000193046    0.000185996       0.725835     0.00561244
     471.505        -78.727    0.000192847    0.000185861        0.72614     0.00560297
     472.005        -78.733    0.000192649    0.000185727       0.726445     0.00559356
     472.505        -78.739    0.000192451    0.000185594       0.726749     0.00558418
     473.005        -78.745    0.000192254    0.000185461       0.727053     0.00557486
     473.505        -78.750    0.000192057    0.000185328       0.727357     0.00556557
     474.005        -78.756     0.00019186    0.000185196       0.727661     0.00555634
     474.505        -78.762    0.000191665    0.000185065       0.727964     0.00554714
     475.005        -78.767    0.000191469    0.000184934       0.728266     0.00553799
     475.505        -78.773    0.000191275    0.000184804       0.728569     0.00552888
     476.005        -78.779     0.00019108    0.000184674       0.728871     0.00551981
     476.505        -78.784    0.000190887    0.000184545       0.729173     0.00551079
     477.005        -78.790    0.000190693    0.000184416       0.729474     0.00550181
     477.505        -78.795    0.000190501    0.000184288       0.729775     0.00549287
     478.005        -78.801    0.000190309     0.00018416       0.730076     0.00548397
     478.505        -78.806    0.000190117    0.000184033       0.730376     0.00547511
     479.005        -78.812    0.000189926    0.000183906       0.730676      0.0054663
     479.505        -78.817    0.000189735     0.00018378       0.730976     0.00545752
     480.005        -78.823    0.000189545    0.000183654       0.731276     0.00544878
     480.505        -78.828    0.000189356    0.000183529       0.731575     0.00544009
     481.005        -78.834    0.000189167    0.000183405       0.731873     0.00543143
     481.505        -78.839    0.000188978     0.00018328       0.732172     0.00542281
     482.005        -78.844     0.00018879    0.000183157        0.73247     0.00541423
     482.505        -78.850    0.000188603    0.000183033       0.732768     0.00540569
     483.005        -78.855    0.000188416    0.000182911       0.733065     0.00539719
     483.505        -78.860    0.000188229    0.000182788       0.733362     0.00538873
     484.005        -78.866    0.000188043    0.000182667       0.733659      0.0053803
     484.505        -78.871    0.000187857    0.000182545       0.733955     0.00537191
     485.005        -78.876    0.000187672    0.000182424       0.734251     0.00536356
     485.505        -78.882    0.000187488    0.000182304       0.734547     0.00535525
     486.005        -78.887    0.000187304    0.000182184       0.734842     0.00534697
     486.505        -78.892     0.00018712    0.000182064       0.735137     0.00533873
     487.005        -78.897    0.000186937    0.000181945       0.735432     0.00533052
     487.505        -78.903    0.000186755    0.000181827       0.735727     0.00532235
     488.005        -78.908    0.000186573    0.000181709       0.736021     0.00531422
     488.505        -78.913    0.000186391    0.000181591       0.736314     0.00530612
     489.005        -78.918     0.00018621    0.000181474       0.736608     0.00529806
     489.505        -78.923    0.000186029    0.000181357       0.736901     0.00529003
     490.005        -78.928    0.000185849     0.00018124       0.737194     0.00528204
     490.505        -78.933    0.000185669    0.000181124       0.737486     0.00527408
     491.005        -78.939     0.00018549    0.000181009       0.737778     0.00526615
     491.505        -78.944    0.000185311    0.000180894        0.73807     0.00525826
     492.005        -78.949    0.000185133    0.000180779       0.738362      0.0052504
     492.505        -78.954    0.000184955    0.000180665       0.738653     0.00524258
     493.005        -78.959    0.000184778    0.000180551       0.738944     0.00523479
     493.505        -78.964    0.000184601    0.000180438       0.739234     0.00522703
     494.005        -78.969    0.000184425    0.000180325       0.739524     0.00521931
     494.505        -78.974    0.000184249    0.000180212       0.739814     0.00521161
     495.005        -78.979    0.000184073      0.0001801       0.740104     0.00520395
     495.505        -78.984    0.000183898    0.000179988       0.740393     0.00519633
     496.005        -78.989    0.000183724    0.000179877       0.740682     0.00518873
     496.505        -78.994     0.00018355    0.000179766        0.74097     0.00518117
     497.005        -78.998    0.000183376    0.000179655       0.741259     0.00517363
     497.505        -79.003    0.000183203    0.000179545       0.741546     0.00516613
     498.005        -79.008     0.00018303    0.000179435       0.741834     0.00515866
     498.505        -79.013    0.000182858    0.000179326       0.742121     0.00515122
     499.005        -79.018    0.000182686    0.000179217       0.742408     0.00514381
     499.505        -79.023    0.000182515    0.000179108       0.742695     0.00513644
     500.005        -79.028    0.000182344       0.000179       0.742981     0.00512909
     500.505        -79.032    0.000182173    0.000178892       0.743267     0.00512177
     501.005        -79.037    0.000182003    0.000178785       0.743553     0.00511448
     501.505        -79.042    0.000181834    0.000178677       0.743838     0.00510722
     502.005        -79.047    0.000181665    0.000178571       0.744123         0.0051
     502.505        -79.052    0.000181496    0.000178464       0.744408      0.0050928
     503.005        -79.056    0.000181328    0.000178358       0.744692     0.00508563
     503.505        -79.061     0.00018116    0.000178253       0.744976     0.00507849
     504.005        -79.066    0.000180993    0.000178148        0.74526     0.00507137
     504.505        -79.070    0.000180826    0.000178043       0.745544     0.00506429
     505.005        -79.075    0.000180659    0.000177938       0.745827     0.00505724
     505.505        -79.080    0.000180493    0.000177834        0.74611     0.00505021
     506.005        -79.084    0.000180328    0.000177731       0.746392     0.00504321
     506.505        -79.089    0.000180162    0.000177627       0.746674     0.00503624
     507.005        -79.094    0.000179998    0.000177524       0.746956      0.0050293
     507.505        -79.098    0.000179833    0.000177421       0.747238     0.00502238
     508.005        -79.103    0.000179669    0.000177319       0.747519      0.0050155
     508.505        -79.107    0.000179506    0.000177217         0.7478     0.00500864
     509.005        -79.112    0.000179343    0.000177115        0.74808      0.0050018
     509.505        -79.117     0.00017918    0.000177014       0.748361       0.004995
     510.005        -79.121    0.000179018    0.000176913       0.748641     0.00498822
     510.505        -79.126    0.000178856    0.000176813        0.74892     0.00498147
     511.005        -79.130    0.000178695    0.000176712         0.7492     0.00497474
     511.505        -79.135    0.000178534    0.000176613       0.749479     0.00496804
     512.005        -79.139    0.000178373    0.000176513       0.749757     0.00496137
     512.505        -79.144    0.000178213    0.000176414       0.750036     0.00495472
     513.005        -79.148    0.000178054    0.000176315       0.750314      0.0049481
     513.505        -79.153    0.000177894    0.000176216       0.750592      0.0049415
     514.005        -79.157    0.000177735    0.000176118       0.750869     0.00493493
     514.505        -79.162    0.000177577     0.00017602       0.751146     0.00492839
     515.005        -79.166    0.000177419    0.000175923       0.751423     0.00492187
     515.505        -79.170    0.000177261    0.000175825         0.7517     0.00491538
     516.005        -79.175    0.000177104    0.000175728       0.751976     0.00490891
     516.505        -79.179    0.000176947    0.000175632       0.752252     0.00490246
     517.005        -79.184    0.000176791    0.000175536       0.752528     0.00489604
     517.505        -79.188    0.000176634     0.00017544       0.752803     0.00488965
     518.005        -79.192    0.000176479    0.000175344       0.753078     0.00488328
     518.505        -79.197    0.000176324    0.000175249       0.753353     0.00487693
     519.005        -79.201    0.000176169    0.000175154       0.753627     0.00487061
     519.505        -79.205    0.000176014    0.000175059       0.753901     0.00486431
     520.005        -79.210     0.00017586    0.000174965       0.754175     0.00485804
     520.505        -79.214    0.000175707    0.000174871       0.754449     0.00485179
     521.005        -79.218    0.000175553    0.000174777       0.754722     0.00484556
     521.505        -79.222      0.0001754    0.000174683       0.754995     0.00483936
     522.005        -79.227    0.000175248     0.00017459       0.755267     0.00483318
     522.505        -79.231    0.000175096    0.000174498       0.755539     0.00482703
     523.005        -79.235    0.000174944    0.000174405       0.755811     0.00482089
     523.505        -79.239    0.000174793    0.000174313       0.756083     0.00481478
     524.005        -79.244    0.000174642    0.000174221       0.756354      0.0048087
     524.505        -79.248    0.000174491    0.000174129       0.756625     0.00480263
     525.005        -79.252    0.000174341    0.000174038       0.756896     0.00479659
     525.505        -79.256    0.000174191    0.000173947       0.757167     0.00479057
     526.005        -79.260    0.000174042    0.000173856       0.757437     0.00478458
     526.505        -79.264    0.000173893    0.000173766       0.757707      0.0047786
     527.005        -79.269    0.000173744    0.000173676       0.757976     0.00477265
     527.505        -79.273    0.000173596    0.000173586       0.758245     0.00476672
     528.005        -79.277    0.000173448    0.000173496       0.758514     0.00476081
     528.505        -79.281      0.0001733    0.000173407       0.758783     0.00475492
     529.005        -79.285    0.000173153    0.000173318       0.759051     0.00474906
     529.505        -79.289    0.000173006    0.000173229       0.759319     0.00474322
     530.005        -79.293     0.00017286    0.000173141       0.759587      0.0047374
     530.505        -79.297    0.000172714    0.000173053       0.759855      0.0047316
     531.005        -79.301    0.000172568    0.000172965       0.760122     0.00472582
     531.505        -79.305    0.000172423    0.000172877       0.760389     0.00472006
     532.005        -79.309    0.000172278     0.00017279       0.760655     0.00471432
     532.505        -79.313    0.000172133    0.000172703       0.760921     0.00470861
     533.005        -79.317    0.000171989    0.000172616       0.761187     0.00470291
     533.505        -79.321    0.000171845     0.00017253       0.761453     0.00469724
     534.005        -79.325    0.000171702    0.000172444       0.761718     0.00469159
     534.505        -79.329    0.000171559    0.000172358       0.761983     0.00468595
     535.005        -79.333    0.000171416    0.000172272       0.762248     0.00468034
     535.505        -79.337    0.000171273    0.000172187       0.762513     0.00467475
     536.005        -79.341    0.000171131    0.000172102       0.762777     0.00466918
     536.505        -79.345     0.00017099    0.000172017       0.763041     0.00466362
     537.005        -79.349    0.000170848    0.000171932       0.763304     0.00465809
     537.505        -79.353    0.000170707    0.000171848       0.763568     0.00465258
     538.005        -79.357    0.000170567    0.000171764       0.763831     0.00464709
     538.505        -79.361    0.000170426     0.00017168       0.764093     0.00464162
     539.005        -79.365    0.000170287    0.000171597       0.764356     0.00463616
     539.505        -79.369    0.000170147    0.000171513       0.764618     0.00463073
     540.005        -79.373    0.000170008     0.00017143        0.76488     0.00462532
     540.505        -79.376    0.000169869    0.000171348       0.765141     0.00461992
     541.005        -79.380     0.00016973    0.000171265       0.765402     0.00461455
     541.505        -79.384    0.000169592    0.000171183       0.765663     0.00460919
     542.005        -79.388    0.000169454    0.000171101       0.765924     0.00460385
     542.505        -79.392    0.000169317    0.000171019       0.766184     0.00459854
     543.005        -79.395     0.00016918    0.000170938       0.766445     0.00459324
     543.505        -79.399    0.000169043    0.000170857       0.766704     0.00458796
     544.005        -79.403    0.000168906    0.000170776       0.766964     0.00458269
     544.505        -79.407     0.00016877    0.000170695       0.767223     0.00457745
     545.005        -79.411    0.000168634    0.000170615       0.767482     0.00457222
     545.505        -79.414    0.000168499    0.000170534       0.767741     0.00456702
     546.005        -79.418    0.000168364    0.000170454       0.767999     0.00456183
     546.505        -79.422    0.000168229    0.000170375       0.768257     0.00455666
     547.005        -79.426    0.000168094    0.000170295       0.768515     0.00455151
     547.505        -79.429     0.00016796    0.000170216       0.768772     0.00454637
     548.005        -79.433    0.000167827    0.000170137       0.769029     0.00454126
     548.505        -79.437    0.000167693    0.000170058       0.769286     0.00453616
     549.005        -79.440     0.00016756     0.00016998       0.769543     0.00453108
     549.505        -79.444    0.000167427    0.000169902       0.769799     0.00452602
     550.005        -79.448    0.000167295    0.000169824       0.770055     0.00452097
     550.505        -79.451    0.000167162    0.000169746       0.770311     0.00451594
     551.005        -79.455    0.000167031    0.000169668       0.770567     0.00451093
     551.505        -79.459    0.000166899    0.000169591       0.770822     0.00450594
     552.005        -79.462    0.000166768    0.000169514       0.771077     0.00450097
     552.505        -79.466    0.000166637    0.000169437       0.771331     0.00449601
     553.005        -79.469    0.000166507     0.00016936       0.771586     0.00449107
     553.505        -79.473    0.000166376    0.000169284        0.77184     0.00448614
     554.005        -79.477    0.000166247    0.000169208       0.772093     0.00448124
     554.505        -79.480    0.000166117    0.000169132       0.772347     0.00447635
     555.005        -79.484    0.000165988    0.000169056         0.7726     0.00447147
     555.505        -79.487    0.000165859    0.000168981       0.772853     0.00446662
     556.005        -79.491     0.00016573    0.000168906       0.773106     0.00446178
     556.505        -79.495    0.000165602    0.000168831       0.773358     0.00445695
     557.005        -79.498    0.000165474    0.000168756        0.77361     0.00445215
     557.505        -79.502    0.000165346    0.000168681       0.773862     0.00444735
     558.005        -79.505    0.000165219    0.000168607       0.774113     0.00444258
     558.505        -79.509    0.000165092    0.000168533       0.774365     0.00443782
     559.005        -79.512    0.000164965    0.000168459       0.774616     0.00443308
     559.505        -79.516    0.000164839    0.000168385       0.774866     0.00442835
     560.005        -79.519    0.000164713    0.000168312       0.775117     0.00442365
     560.505        -79.523    0.000164587    0.000168239       0.775367     0.00441895
     561.005        -79.526    0.000164461    0.000168166       0.775617     0.00441427
     561.505        -79.529    0.000164336    0.000168093       0.775866     0.00440961
     562.005        -79.533    0.000164211     0.00016802       0.776115     0.00440497
     562.505        -79.536    0.000164087    0.000167948       0.776364     0.00440033
     563.005        -79.540    0.000163962    0.000167876       0.776613     0.00439572
     563.505        -79.543    0.000163838    0.000167804       0.776862     0.00439112
     564.005        -79.547    0.000163715    0.000167732        0.77711     0.00438654
     564.505        -79.550    0.000163591    0.000167661       0.777358     0.00438197
     565.005        -79.553    0.000163468    0.000167589       0.777605     0.00437741
     565.505        -79.557    0.000163345    0.000167518       0.777853     0.00437288
     566.005        -79.560    0.000163223    0.000167447         0.7781     0.00436835
     566.505        -79.564    0.000163101    0.000167377       0.778346     0.00436384
     567.005        -79.567    0.000162979    0.000167306       0.778593     0.00435935
     567.505        -79.570    0.000162857    0.000167236       0.778839     0.00435487
     568.005        -79.574    0.000162736    0.000167166       0.779085     0.00435041
     568.505        -79.577    0.000162615    0.000167096       0.779331     0.00434596
     569.005        -79.580    0.000162494    0.000167027       0.779576     0.00434153
     569.505        -79.584    0.000162374    0.000166957       0.779821     0.00433711
     570.005        -79.587    0.000162254    0.000166888       0.780066     0.00433271
     570.505        -79.590    0.000162134    0.000166819       0.780311     0.00432832
     571.005        -79.594    0.000162014     0.00016675       0.780555     0.00432394
     571.505        -79.597    0.000161895    0.000166682       0.780799     0.00431958
     572.005        -79.600    0.000161776    0.000166613       0.781043     0.00431524
     572.505        -79.603    0.000161657    0.000166545       0.781286     0.00431091
     573.005        -79.607    0.000161539    0.000166477        0.78153     0.00430659
     573.505        -79.610    0.000161421    0.000166409       0.781773     0.00430228
     574.005        -79.613    0.000161303    0.000166341       0.782015       0.004298
     574.505        -79.616    0.000161185    0.000166274       0.782258     0.00429372
     575.005        -79.620    0.000161068    0.000166207         0.7825     0.00428946
     575.505        -79.623    0.000160951     0.00016614       0.782742     0.00428521
     576.005        -79.626    0.000160835    0.000166073       0.782983     0.00428098
     576.505        -79.629    0.000160718    0.000166006       0.783225     0.00427676
     577.005        -79.632    0.000160602     0.00016594       0.783466     0.00427255
     577.505        -79.636    0.000160486    0.000165874       0.783706     0.00426836
     578.005        -79.639    0.000160371    0.000165807       0.783947     0.00426418
     578.505        -79.642    0.000160255    0.000165742       0.784187     0.00426002
     579.005        -79.645     0.00016014    0.000165676       0.784427     0.00425587
     579.505        -79.648    0.000160025     0.00016561       0.784667     0.00425173
     580.005        -79.651    0.000159911    0.000165545       0.784906     0.00424761
     580.505        -79.655    0.000159797     0.00016548       0.785146      0.0042435
     581.005        -79.658    0.000159683    0.000165415       0.785384      0.0042394
     581.505        -79.661    0.000159569     0.00016535       0.785623     0.00423531
     582.005        -79.664    0.000159456    0.000165286       0.785862     0.00423124
     582.505        -79.667    0.000159343    0.000165221         0.7861     0.00422719
     583.005        -79.670     0.00015923    0.000165157       0.786338     0.00422314
     583.505        -79.673    0.000159117    0.000165093       0.786575     0.00421911
     584.005        -79.676    0.000159005    0.000165029       0.786812     0.00421509
     584.505        -79.679    0.000158893    0.000164966       0.787049     0.00421108
     585.005        -79.682    0.000158781    0.000164902       0.787286     0.00420709
     585.505        -79.686     0.00015867    0.000164839       0.787523     0.00420311
     586.005        -79.689    0.000158558    0.000164776       0.787759     0.00419914
     586.505        -79.692    0.000158447    0.000164713       0.787995     0.00419519
     587.005        -79.695    0.000158337     0.00016465       0.788231     0.00419124
     587.505        -79.698    0.000158226    0.000164587       0.788466     0.00418731
     588.005        -79.701    0.000158116    0.000164525       0.788702      0.0041834
     588.505        -79.704    0.000158006    0.000164463       0.788936     0.00417949
     589.005        -79.707    0.000157896    0.000164401       0.789171      0.0041756
     589.505        -79.710    0.000157787    0.000164339       0.789406     0.00417172
     590.005        -79.713    0.000157678    0.000164277        0.78964     0.00416785
     590.505        -79.716    0.000157569    0.000164216       0.789874       0.004164
     591.005        -79.719     0.00015746    0.000164154       0.790107     0.00416015
     591.505        -79.722    0.000157352    0.000164093       0.790341     0.00415632
     592.005        -79.725    0.000157244    0.000164032       0.790574      0.0041525
     592.505        -79.728    0.000157136    0.000163971       0.790807      0.0041487
     593.005        -79.731    0.000157028    0.000163911       0.791039      0.0041449
     593.505        -79.734    0.000156921     0.00016385       0.791272     0.00414112
     594.005        -79.737    0.000156814     0.00016379       0.791504     0.00413735
     594.505        -79.739    0.000156707     0.00016373       0.791736     0.00413359
     595.005        -79.742      0.0001566     0.00016367       0.791967     0.00412984
     595.505        -79.745    0.000156494     0.00016361       0.792198     0.00412611
     596.005        -79.748    0.000156388     0.00016355       0.792429     0.00412238
     596.505        -79.751    0.000156282    0.000163491        0.79266     0.00411867
     597.005        -79.754    0.000156176    0.000163431       0.792891     0.00411497
     597.505        -79.757    0.000156071    0.000163372       0.793121     0.00411128
     598.005        -79.760    0.000155966    0.000163313       0.793351      0.0041076
     598.505        -79.763    0.000155861    0.000163254       0.793581     0.00410394
     599.005        -79.766    0.000155757    0.000163196        0.79381     0.00410028
     599.505        -79.768    0.000155652    0.000163137        0.79404     0.00409664
     600.005        -79.771    0.000155548    0.000163079       0.794269     0.00409301
     600.505        -79.774    0.000155444    0.000163021       0.794497     0.00408939
     601.005        -79.777    0.000155341    0.000162963       0.794726     0.00408578
     601.505        -79.780    0.000155237    0.000162905       0.794954     0.00408218
     602.005        -79.783    0.000155134    0.000162847       0.795182     0.00407859
     602.505        -79.785    0.000155031     0.00016279        0.79541     0.00407502
     603.005        -79.788    0.000154928    0.000162732       0.795637     0.00407145
     603.505        -79.791    0.000154826    0.000162675       0.795864      0.0040679
     604.005        -79.794    0.000154724    0.000162618       0.796091     0.00406436
     604.505        -79.797    0.000154622    0.000162561       0.796318     0.00406082
     605.005        -79.799     0.00015452    0.000162504       0.796545      0.0040573
     605.505        -79.802    0.000154419    0.000162448       0.796771     0.00405379
     606.005        -79.805    0.000154317    0.000162391       0.796997     0.00405029
     606.505        -79.808    0.000154216    0.000162335       0.797222     0.00404681
     607.005        -79.811    0.000154116    0.000162279       0.797448     0.00404333
     607.505        -79.813    0.000154015    0.000162223       0.797673     0.00403986
     608.005        -79.816    0.000153915    0.000162167       0.797898      0.0040364
     608.505        -79.819    0.000153815    0.000162111       0.798123     0.00403296
     609.005        -79.822    0.000153715    0.000162056       0.798347     0.00402952
     609.505        -79.824    0.000153615    0.000162001       0.798571      0.0040261
     610.005        -79.827    0.000153516    0.000161945       0.798795     0.00402268
     610.505        -79.830    0.000153417     0.00016189       0.799019     0.00401928
     611.005        -79.832    0.000153318    0.000161835       0.799242     0.00401588
     611.505        -79.835    0.000153219    0.000161781       0.799466      0.0040125
     612.005        -79.838    0.000153121    0.000161726       0.799689     0.00400913
     612.505        -79.840    0.000153022    0.000161672       0.799911     0.00400576
     613.005        -79.843    0.000152924    0.000161617       0.800134     0.00400241
     613.505        -79.846    0.000152827    0.000161563       0.800356     0.00399907
     614.005        -79.849    0.000152729    0.000161509       0.800578     0.00399574
     614.505        -79.851    0.000152632    0.000161455         0.8008     0.00399241
     615.005        -79.854    0.000152535    0.000161401       0.801021      0.0039891
     615.505        -79.856    0.000152438    0.000161348       0.801242      0.0039858
     616.005        -79.859    0.000152341    0.000161294       0.801463     0.00398251
     616.505        -79.862    0.000152245    0.000161241       0.801684     0.00397922
     617.005        -79.864    0.000152149    0.000161188       0.801904     0.00397595
     617.505        -79.867    0.000152053    0.000161135       0.802125     0.00397269
     618.005        -79.870    0.000151957    0.000161082       0.802345     0.00396944
     618.505        -79.872    0.000151861    0.000161029       0.802564     0.00396619
     619.005        -79.875    0.000151766    0.000160977       0.802784     0.00396296
     619.505        -79.877    0.000151671    0.000160924       0.803003     0.00395974
     620.005        -79.880    0.000151576    0.000160872       0.803222     0.00395652
     620.505        -79.883    0.000151481     0.00016082       0.803441     0.00395332
     621.005        -79.885    0.000151387    0.000160768       0.803659     0.00395012
     621.505        -79.888    0.000151293    0.000160716       0.803878     0.00394694
     622.005        -79.890    0.000151199    0.000160664       0.804096     0.00394376
     622.505        -79.893    0.000151105    0.000160613       0.804313     0.00394059
     623.005        -79.896    0.000151011    0.000160561       0.804531     0.00393744
     623.505        -79.898    0.000150918     0.00016051       0.804748     0.00393429
     624.005        -79.901    0.000150825    0.000160459       0.804965     0.00393115
     624.505        -79.903    0.000150732    0.000160408       0.805182     0.00392802
     625.005        -79.906    0.000150639    0.000160357       0.805399      0.0039249
     625.505        -79.908    0.000150547    0.000160306       0.805615     0.00392179
     626.005        -79.911    0.000150454    0.000160255       0.805831     0.00391869
     626.505        -79.913    0.000150362    0.000160205       0.806047      0.0039156
     627.005        -79.916     0.00015027    0.000160154       0.806263     0.00391252
     627.505        -79.918    0.000150179    0.000160104       0.806478     0.00390944
     628.005        -79.921    0.000150087    0.000160054       0.806693     0.00390638
     628.505        -79.923    0.000149996    0.000160004       0.806908     0.00390332
     629.005        -79.926    0.000149905    0.000159954       0.807123     0.00390028
     629.505        -79.928    0.000149814    0.000159904       0.807337     0.00389724
     630.005        -79.931    0.000149723    0.000159855       0.807551     0.00389421
     630.505        -79.933    0.000149633    0.000159805       0.807765     0.00389119
     631.005        -79.936    0.000149543    0.000159756       0.807979     0.00388818
     631.505        -79.938    0.000149453    0.000159707       0.808192     0.00388518
     632.005        -79.941    0.000149363    0.000159658       0.808405     0.00388218
     632.505        -79.943    0.000149273    0.000159609       0.808618      0.0038792
     633.005        -79.945    0.000149184     0.00015956       0.808831     0.00387622
     633.505        -79.948    0.000149095    0.000159511       0.809044     0.00387326
     634.005        -79.950    0.000149006    0.000159463       0.809256      0.0038703
     634.505        -79.953    0.000148917    0.000159414       0.809468     0.00386735
     635.005        -79.955    0.000148828    0.000159366        0.80968     0.00386441
     635.505        -79.958     0.00014874    0.000159318       0.809891     0.00386147
     636.005        -79.960    0.000148652     0.00015927       0.810103     0.00385855
     636.505        -79.962    0.000148564    0.000159222       0.810314     0.00385563
     637.005        -79.965    0.000148476    0.000159174       0.810525     0.00385273
     637.505        -79.967    0.000148388    0.000159127       0.810735     0.00384983
     638.005        -79.970    0.000148301    0.000159079       0.810946     0.00384694
     638.505        -79.972    0.000148214    0.000159032       0.811156     0.00384405
     639.005        -79.974    0.000148127    0.000158984       0.811366     0.00384118
     639.505        -79.977     0.00014804    0.000158937       0.811575     0.00383832
     640.005        -79.979    0.000147953     0.00015889       0.811785     0.00383546
     640.505        -79.981    0.000147867    0.000158843       0.811994     0.00383261
     641.005        -79.984     0.00014778    0.000158796       0.812203     0.00382977
     641.505        -79.986    0.000147694     0.00015875       0.812412     0.00382694
     642.005        -79.988    0.000147609    0.000158703        0.81262     0.00382411
     642.505        -79.991    0.000147523    0.000158657       0.812828      0.0038213
     643.005        -79.993    0.000147437     0.00015861       0.813036     0.00381849
     643.505        -79.995    0.000147352    0.000158564       0.813244     0.00381569
     644.005        -79.998    0.000147267    0.000158518       0.813452      0.0038129
     644.505        -80.000    0.000147182    0.000158472       0.813659     0.00381011
     645.005        -80.002    0.000147098    0.000158426       0.813866     0.00380734
     645.505        -80.005    0.000147013    0.000158381       0.814073     0.00380457
     646.005        -80.007    0.000146929    0.000158335        0.81428     0.00380181
     646.505        -80.009    0.000146845     0.00015829       0.814486     0.00379906
     647.005        -80.012    0.000146761    0.000158244       0.814692     0.00379631
     647.505        -80.014    0.000146677    0.000158199       0.814898     0.00379357
     648.005        -80.016    0.000146593    0.000158154       0.815104     0.00379085
     648.505        -80.018     0.00014651    0.000158109        0.81531     0.00378812
     649.005        -80.021    0.000146427    0.000158064       0.815515     0.00378541
     649.505        -80.023    0.000146344    0.000158019        0.81572     0.00378271
     650.005        -80.025    0.000146261    0.000157974       0.815925     0.00378001
     650.505        -80.027    0.000146178     0.00015793       0.816129     0.00377732
     651.005        -80.030    0.000146096    0.000157886       0.816334     0.00377464
     651.505        -80.032    0.000146014    0.000157841       0.816538     0.00377196
     652.005        -80.034    0.000145932    0.000157797       0.816742     0.00376929
     652.505        -80.036     0.00014585    0.000157753       0.816945     0.00376663
     653.005        -80.039    0.000145768    0.000157709       0.817149     0.00376398
     653.505        -80.041    0.000145686    0.000157665       0.817352     0.00376134
     654.005        -80.043    0.000145605    0.000157621       0.817555      0.0037587
     654.505        -80.045    0.000145524    0.000157578       0.817758     0.00375607
     655.005        -80.048    0.000145443    0.000157534        0.81796     0.00375345
     655.505        -80.050    0.000145362    0.000157491       0.818163     0.00375083
     656.005        -80.052    0.000145282    0.000157447       0.818365     0.00374822
     656.505        -80.054    0.000145201    0.000157404       0.818567     0.00374562
     657.005        -80.056    0.000145121    0.000157361       0.818768     0.00374303
     657.505        -80.058    0.000145041    0.000157318        0.81897     0.00374044
     658.005        -80.061    0.000144961    0.000157275       0.819171     0.00373786
     658.505        -80.063    0.000144881    0.000157232       0.819372     0.00373529
     659.005        -80.065    0.000144802     0.00015719       0.819573     0.00373273
     659.505        -80.067    0.000144722    0.000157147       0.819773     0.00373017
     660.005        -80.069    0.000144643    0.000157105       0.819974     0.00372762
     660.505        -80.071    0.000144564    0.000157062       0.820174     0.00372508
     661.005        -80.074    0.000144485     0.00015702       0.820373     0.00372254
     661.505        -80.076    0.000144406    0.000156978       0.820573     0.00372001
     662.005        -80.078    0.000144328    0.000156936       0.820772     0.00371749
     662.505        -80.080     0.00014425    0.000156894       0.820972     0.00371498
     663.005        -80.082    0.000144171    0.000156852       0.821171     0.00371247
     663.505        -80.084    0.000144093    0.000156811       0.821369     0.00370997
     664.005        -80.086    0.000144016    0.000156769       0.821568     0.00370747
     664.505        -80.088    0.000143938    0.000156727       0.821766     0.00370499
     665.005        -80.091     0.00014386    0.000156686       0.821964     0.00370251
     665.505        -80.093    0.000143783    0.000156645       0.822162     0.00370003
     666.005        -80.095    0.000143706    0.000156604        0.82236     0.00369757
     666.505        -80.097    0.000143629    0.000156563       0.822557     0.00369511
     667.005        -80.099    0.000143552    0.000156522       0.822754     0.00369266
     667.505        -80.101    0.000143476    0.000156481       0.822951     0.00369021
     668.005        -80.103    0.000143399     0.00015644       0.823148     0.00368777
     668.505        -80.105    0.000143323    0.000156399       0.823345     0.00368534
     669.005        -80.107    0.000143247    0.000156359       0.823541     0.00368291
     669.505        -80.109    0.000143171    0.000156318       0.823737     0.00368049
     670.005        -80.111    0.000143095    0.000156278       0.823933     0.00367808
     670.505        -80.113    0.000143019    0.000156238       0.824129     0.00367567
     671.005        -80.116    0.000142944    0.000156197       0.824324     0.00367328
     671.505        -80.118    0.000142869    0.000156157       0.824519     0.00367088
     672.005        -80.120    0.000142794    0.000156117       0.824714      0.0036685
     672.505        -80.122    0.000142719    0.000156078       0.824909     0.00366612
     673.005        -80.124    0.000142644    0.000156038       0.825104     0.00366374
     673.505        -80.126    0.000142569    0.000155998       0.825298     0.00366138
     674.005        -80.128    0.000142495    0.000155959       0.825492     0.00365902
     674.505        -80.130     0.00014242    0.000155919       0.825686     0.00365666
     675.005        -80.132    0.000142346     0.00015588        0.82588     0.00365432
     675.505        -80.134    0.000142272    0.000155841       0.826073     0.00365197
     676.005        -80.136    0.000142198    0.000155801       0.826267     0.00364964
     676.505        -80.138    0.000142125    0.000155762        0.82646     0.00364731
     677.005        -80.140    0.000142051    0.000155723       0.826652     0.00364499
     677.505        -80.142    0.000141978    0.000155684       0.826845     0.00364267
     678.005        -80.144    0.000141905    0.000155646       0.827037     0.00364037
     678.505        -80.146    0.000141832    0.000155607        0.82723     0.00363806
     679.005        -80.148    0.000141759    0.000155568       0.827422     0.00363577
     679.505        -80.150    0.000141686     0.00015553       0.827613     0.00363347
     680.005        -80.152    0.000141614    0.000155491       0.827805     0.00363119
     680.505        -80.154    0.000141541    0.000155453       0.827996     0.00362891
     681.005        -80.156    0.000141469    0.000155415       0.828187     0.00362664
     681.505        -80.158    0.000141397    0.000155377       0.828378     0.00362437
     682.005        -80.160    0.000141325    0.000155339       0.828569     0.00362211
     682.505        -80.162    0.000141253    0.000155301        0.82876     0.00361986
     683.005        -80.163    0.000141182    0.000155263        0.82895     0.00361761
     683.505        -80.165     0.00014111    0.000155225        0.82914     0.00361537
     684.005        -80.167    0.000141039    0.000155188        0.82933     0.00361314
     684.505        -80.169    0.000140968     0.00015515       0.829519     0.00361091
     685.005        -80.171    0.000140897    0.000155113       0.829709     0.00360868
     685.505        -80.173    0.000140826    0.000155075       0.829898     0.00360646
     686.005        -80.175    0.000140755    0.000155038       0.830087     0.00360425
     686.505        -80.177    0.000140685    0.000155001       0.830276     0.00360205
     687.005        -80.179    0.000140614    0.000154964       0.830464     0.00359985
     687.505        -80.181    0.000140544    0.000154927       0.830653     0.00359765
     688.005        -80.183    0.000140474     0.00015489       0.830841     0.00359547
     688.505        -80.185    0.000140404    0.000154853       0.831029     0.00359328
     689.005        -80.186    0.000140334    0.000154816       0.831217     0.00359111
     689.505        -80.188    0.000140265    0.000154779       0.831404     0.00358894
     690.005        -80.190    0.000140195    0.000154743       0.831592     0.00358677
     690.505        -80.192    0.000140126    0.000154706       0.831779     0.00358461
     691.005        -80.194    0.000140057     0.00015467       0.831966     0.00358246
     691.505        -80.196    0.000139988    0.000154634       0.832152     0.00358031
     692.005        -80.198    0.000139919    0.000154598       0.832339     0.00357817
     692.505        -80.200     0.00013985    0.000154561       0.832525     0.00357603
     693.005        -80.202    0.000139782    0.000154525       0.832711      0.0035739
     693.505        -80.203    0.000139713    0.000154489       0.832897     0.00357178
     694.005        -80.205    0.000139645    0.000154454       0.833083     0.00356966
     694.505        -80.207    0.000139577    0.000154418       0.833268     0.00356754
     695.005        -80.209    0.000139509    0.000154382       0.833453     0.00356543
     695.505        -80.211    0.000139441    0.000154346       0.833639     0.00356333
     696.005        -80.213    0.000139373    0.000154311       0.833823     0.00356123
     696.505        -80.214    0.000139306    0.000154276       0.834008     0.00355914
     697.005        -80.216    0.000139238     0.00015424       0.834192     0.00355706
     697.505        -80.218    0.000139171    0.000154205       0.834377     0.00355498
     698.005        -80.220    0.000139104     0.00015417       0.834561      0.0035529
     698.505        -80.222    0.000139037    0.000154135       0.834744     0.00355083
     699.005        -80.224     0.00013897      0.0001541       0.834928     0.00354877
     699.505        -80.225    0.000138904    0.000154065       0.835111     0.00354671
     700.005        -80.227    0.000138837     0.00015403       0.835295     0.00354466
     700.505        -80.229    0.000138771    0.000153995       0.835478     0.00354261
     701.005        -80.231    0.000138704     0.00015396        0.83566     0.00354056
     701.505        -80.233    0.000138638    0.000153926       0.835843     0.00353853
     702.005        -80.234    0.000138572    0.000153891       0.836025      0.0035365
     702.505        -80.236    0.000138506    0.000153857       0.836208     0.00353447
     703.005        -80.238    0.000138441    0.000153823        0.83639     0.00353245
     703.505        -80.240    0.000138375    0.000153788       0.836571     0.00353043
     704.005        -80.241     0.00013831    0.000153754       0.836753     0.00352842
     704.505        -80.243    0.000138245     0.00015372       0.836934     0.00352641
     705.005        -80.245    0.000138179    0.000153686       0.837115     0.00352441
     705.505        -80.247    0.000138114    0.000153652       0.837296     0.00352242
     706.005        -80.249     0.00013805    0.000153618       0.837477     0.00352043
     706.505        -80.250    0.000137985    0.000153585       0.837658     0.00351844
     707.005        -80.252     0.00013792    0.000153551       0.837838     0.00351646
     707.505        -80.254    0.000137856    0.000153517       0.838018     0.00351449
     708.005        -80.256    0.000137791    0.000153484       0.838198     0.00351252
     708.505        -80.257    0.000137727     0.00015345       0.838378     0.00351056
     709.005        -80.259    0.000137663    0.000153417       0.838558      0.0035086
     709.505        -80.261    0.000137599    0.000153384       0.838737     0.00350664
     710.005        -80.262    0.000137536     0.00015335       0.838916     0.00350469
     710.505        -80.264    0.000137472    0.000153317       0.839095     0.00350275
     711.005        -80.266    0.000137408    0.000153284       0.839274     0.00350081
     711.505        -80.268    0.000137345    0.000153251       0.839452     0.00349888
     712.005        -80.269    0.000137282    0.000153218       0.839631     0.00349695
     712.505        -80.271    0.000137219    0.000153186       0.839809     0.00349502
     713.005        -80.273    0.000137156    0.000153153       0.839987      0.0034931
     713.505        -80.274    0.000137093     0.00015312       0.840165     0.00349119
     714.005        -80.276     0.00013703    0.000153088       0.840342     0.00348928
     714.505        -80.278    0.000136968    0.000153055        0.84052     0.00348738
     715.005        -80.280    0.000136905    0.000153023       0.840697     0.00348548
     715.505        -80.281    0.000136843     0.00015299       0.840874     0.00348358
     716.005        -80.283    0.000136781    0.000152958        0.84105     0.00348169
     716.505        -80.285    0.000136719    0.000152926       0.841227     0.00347981
     717.005        -80.286    0.000136657    0.000152894       0.841403     0.00347793
     717.505        -80.288    0.000136595    0.000152862        0.84158     0.00347605
     718.005        -80.290    0.000136533     0.00015283       0.841756     0.00347418
     718.505        -80.291    0.000136472    0.000152798       0.841931     0.00347232
     719.005        -80.293    0.000136411    0.000152766       0.842107     0.00347045
     719.505        -80.295    0.000136349    0.000152734       0.842282      0.0034686
     720.005        -80.296    0.000136288    0.000152702       0.842458     0.00346675
     720.505        -80.298    0.000136227    0.000152671       0.842633      0.0034649
     721.005        -80.300    0.000136166    0.000152639       0.842807     0.00346306
     721.505        -80.301    0.000136106    0.000152608       0.842982     0.00346122
     722.005        -80.303    0.000136045    0.000152576       0.843156     0.00345939
     722.505        -80.305    0.000135985    0.000152545       0.843331     0.00345756
     723.005        -80.306    0.000135924    0.000152514       0.843505     0.00345574
     723.505        -80.308    0.000135864    0.000152483       0.843679     0.00345392
     724.005        -80.309    0.000135804    0.000152452       0.843852      0.0034521
     724.505        -80.311    0.000135744    0.000152421       0.844026     0.00345029
     725.005        -80.313    0.000135684     0.00015239       0.844199     0.00344849
     725.505        -80.314    0.000135624    0.000152359       0.844372     0.00344669
     726.005        -80.316    0.000135565    0.000152328       0.844545     0.00344489
     726.505        -80.318    0.000135505    0.000152297       0.844718      0.0034431
     727.005        -80.319    0.000135446    0.000152267        0.84489     0.00344131
     727.505        -80.321    0.000135387    0.000152236       0.845062     0.00343953
     728.005        -80.322    0.000135327    0.000152206       0.845234     0.00343775
     728.505        -80.324    0.000135268    0.000152175       0.845406     0.00343598
     729.005        -80.326     0.00013521    0.000152145       0.845578     0.00343421
     729.505        -80.327    0.000135151    0.000152114        0.84575     0.00343244
     730.005        -80.329    0.000135092    0.000152084       0.845921     0.00343068
     730.505        -80.330    0.000135034    0.000152054       0.846092     0.00342893
     731.005        -80.332    0.000134975    0.000152024       0.846263     0.00342718
     731.505        -80.333    0.000134917    0.000151994       0.846434     0.00342543
     732.005        -80.335    0.000134859    0.000151964       0.846604     0.00342369
     732.505        -80.337    0.000134801    0.000151934       0.846775     0.00342195
     733.005        -80.338    0.000134743    0.000151904       0.846945     0.00342022
     733.505        -80.340    0.000134685    0.000151874       0.847115     0.00341849
     734.005        -80.341    0.000134628    0.000151845       0.847285     0.00341676
     734.505        -80.343     0.00013457    0.000151815       0.847454     0.00341504
     735.005        -80.344    0.000134513    0.000151786       0.847624     0.00341332
     735.505        -80.346    0.000134456    0.000151756       0.847793     0.00341161
     736.005        -80.347    0.000134398    0.000151727       0.847962      0.0034099
     736.505        -80.349    0.000134341    0.000151697       0.848131      0.0034082
     737.005        -80.351    0.000134284    0.000151668         0.8483      0.0034065
     737.505        -80.352    0.000134228    0.000151639       0.848468      0.0034048
     738.005        -80.354    0.000134171     0.00015161       0.848637     0.00340311
     738.505        -80.355    0.000134114    0.000151581       0.848805     0.00340143
     739.005        -80.357    0.000134058    0.000151552       0.848973     0.00339974
     739.505        -80.358    0.000134001    0.000151523        0.84914     0.00339806
     740.005        -80.360    0.000133945    0.000151494       0.849308     0.00339639
     740.505        -80.361    0.000133889    0.000151465       0.849475     0.00339472
     741.005        -80.363    0.000133833    0.000151436       0.849643     0.00339305
     741.505        -80.364    0.000133777    0.000151408        0.84981     0.00339139
     742.005        -80.366    0.000133721    0.000151379       0.849976     0.00338973
     742.505        -80.367    0.000133666    0.000151351       0.850143     0.00338808
     743.005        -80.369     0.00013361    0.000151322       0.850309     0.00338643
     743.505        -80.370    0.000133555    0.000151294       0.850476     0.00338478
     744.005        -80.372      0.0001335    0.000151265       0.850642     0.00338314
     744.505        -80.373    0.000133444    0.000151237       0.850808      0.0033815
     745.005        -80.375    0.000133389    0.000151209       0.850973     0.00337987
     745.505        -80.376    0.000133334    0.000151181       0.851139     0.00337824
     746.005        -80.378    0.000133279    0.000151153       0.851304     0.00337662
     746.505        -80.379    0.000133225    0.000151125       0.851469     0.00337499
     747.005        -80.381     0.00013317    0.000151097       0.851634     0.00337338
     747.505        -80.382    0.000133116    0.000151069       0.851799     0.00337176
     748.005        -80.384    0.000133061    0.000151041       0.851964     0.00337015
     748.505        -80.385    0.000133007    0.000151013       0.852128     0.00336855
     749.005        -80.387    0.000132953    0.000150985       0.852292     0.00336695
     749.505        -80.388    0.000132899    0.000150958       0.852456     0.00336535
     750.005        -80.390    0.000132845     0.00015093        0.85262     0.00336375
     750.505        -80.391    0.000132791    0.000150903       0.852784     0.00336216
     751.005        -80.392    0.000132737    0.000150875       0.852947     0.00336058
     751.505        -80.394    0.000132684    0.000150848       0.853111       0.003359
     752.005        -80.395     0.00013263     0.00015082       0.853274     0.00335742
     752.505        -80.397    0.000132577    0.000150793       0.853437     0.00335584
     753.005        -80.398    0.000132523    0.000150766         0.8536     0.00335427
     753.505        -80.400     0.00013247    0.000150739       0.853762      0.0033527
     754.005        -80.401    0.000132417    0.000150712       0.853925     0.00335114
     754.505        -80.403    0.000132364    0.000150685       0.854087     0.00334958
     755.005        -80.404    0.000132311    0.000150658       0.854249     0.00334803
     755.505        -80.405    0.000132258    0.000150631       0.854411     0.00334647
     756.005        -80.407    0.000132206    0.000150604       0.854572     0.00334493
     756.505        -80.408    0.000132153    0.000150577       0.854734     0.00334338
     757.005        -80.410    0.000132101     0.00015055       0.854895     0.00334184
     757.505        -80.411    0.000132049    0.000150524       0.855056      0.0033403
     758.005        -80.412    0.000131996    0.000150497       0.855217     0.00333877
     758.505        -80.414    0.000131944    0.000150471       0.855378     0.00333724
     759.005        -80.415    0.000131892    0.000150444       0.855539     0.00333572
     759.505        -80.417     0.00013184    0.000150418       0.855699     0.00333419
     760.005        -80.418    0.000131789    0.000150391       0.855859     0.00333268
     760.505        -80.419    0.000131737    0.000150365        0.85602     0.00333116
     761.005        -80.421    0.000131685    0.000150339       0.856179     0.00332965
     761.505        -80.422    0.000131634    0.000150313       0.856339     0.00332814
     762.005        -80.424    0.000131582    0.000150287       0.856499     0.00332664
     762.505        -80.425    0.000131531     0.00015026       0.856658     0.00332514
     763.005        -80.426     0.00013148    0.000150234       0.856817     0.00332364
     763.505        -80.428    0.000131429    0.000150208       0.856976     0.00332215
     764.005        -80.429    0.000131378    0.000150183       0.857135     0.00332066
     764.505        -80.431    0.000131327    0.000150157       0.857294     0.00331917
     765.005        -80.432    0.000131276    0.000150131       0.857452     0.00331769
     765.505        -80.433    0.000131226    0.000150105        0.85761     0.00331621
     766.005        -80.435    0.000131175     0.00015008       0.857769     0.00331474
     766.505        -80.436    0.000131125    0.000150054       0.857927     0.00331327
     767.005        -80.437    0.000131074    0.000150028       0.858084      0.0033118
     767.505        -80.439    0.000131024    0.000150003       0.858242     0.00331033
     768.005        -80.440    0.000130974    0.000149977       0.858399     0.00330887
     768.505        -80.441    0.000130924    0.000149952       0.858557     0.00330741
     769.005        -80.443    0.000130874    0.000149927       0.858714     0.00330596
     769.505        -80.444    0.000130824    0.000149901       0.858871     0.00330451
     770.005        -80.446    0.000130775    0.000149876       0.859027     0.00330306
     770.505        -80.447    0.000130725    0.000149851       0.859184     0.00330162
     771.005        -80.448    0.000130675    0.000149826        0.85934     0.00330018
     771.505        -80.450    0.000130626    0.000149801       0.859496     0.00329874
     772.005        -80.451    0.000130577    0.000149776       0.859652     0.00329731
     772.505        -80.452    0.000130527    0.000149751       0.859808     0.00329588
     773.005        -80.454    0.000130478    0.000149726       0.859964     0.00329445
     773.505        -80.455    0.000130429    0.000149701       0.860119     0.00329303
     774.005        -80.456     0.00013038    0.000149676       0.860275     0.00329161
     774.505        -80.457    0.000130331    0.000149652        0.86043     0.00329019
     775.005        -80.459    0.000130283    0.000149627       0.860585     0.00328878
     775.505        -80.460    0.000130234    0.000149602        0.86074     0.00328737
     776.005        -80.461    0.000130186    0.000149578       0.860894     0.00328596
     776.505        -80.463    0.000130137    0.000149553       0.861049     0.00328456
     777.005        -80.464    0.000130089    0.000149529       0.861203     0.00328316
     777.505        -80.465    0.000130041    0.000149505       0.861357     0.00328176
     778.005        -80.467    0.000129992     0.00014948       0.861511     0.00328037
     778.505        -80.468    0.000129944    0.000149456       0.861665     0.00327898
     779.005        -80.469    0.000129896    0.000149432       0.861818     0.00327759
     779.505        -80.471    0.000129849    0.000149408       0.861972     0.00327621
     780.005        -80.472    0.000129801    0.000149383       0.862125     0.00327483
     780.505        -80.473    0.000129753    0.000149359       0.862278     0.00327345
     781.005        -80.474    0.000129706    0.000149335       0.862431     0.00327208
     781.505        -80.476    0.000129658    0.000149311       0.862584      0.0032707
     782.005        -80.477    0.000129611    0.000149287       0.862736     0.00326934
     782.505        -80.478    0.000129563    0.000149264       0.862889     0.00326797
     783.005        -80.479    0.000129516     0.00014924       0.863041     0.00326661
     783.505        -80.481    0.000129469    0.000149216       0.863193     0.00326525
     784.005        -80.482    0.000129422    0.000149192       0.863345      0.0032639
     784.505        -80.483    0.000129375    0.000149169       0.863497     0.00326255
     785.005        -80.485    0.000129328    0.000149145       0.863648      0.0032612
     785.505        -80.486    0.000129282    0.000149121         0.8638     0.00325985
     786.005        -80.487    0.000129235    0.000149098       0.863951     0.00325851
     786.505        -80.488    0.000129188    0.000149075       0.864102     0.00325717
     787.005        -80.490    0.000129142    0.000149051       0.864253     0.00325584
     787.505        -80.491    0.000129096    0.000149028       0.864404     0.00325451
     788.005        -80.492    0.000129049    0.000149004       0.864554     0.00325318
     788.505        -80.493    0.000129003    0.000148981       0.864705     0.00325185
     789.005        -80.495    0.000128957    0.000148958       0.864855     0.00325053
     789.505        -80.496    0.000128911    0.000148935       0.865005     0.00324921
     790.005        -80.497    0.000128865    0.000148912       0.865155     0.00324789
     790.505        -80.498     0.00012882    0.000148889       0.865304     0.00324657
     791.005        -80.500    0.000128774    0.000148866       0.865454     0.00324526
     791.505        -80.501    0.000128728    0.000148843       0.865603     0.00324396
     792.005        -80.502    0.000128683     0.00014882       0.865753     0.00324265
     792.505        -80.503    0.000128637    0.000148797       0.865902     0.00324135
     793.005        -80.504    0.000128592    0.000148774       0.866051     0.00324005
     793.505        -80.506    0.000128547    0.000148751       0.866199     0.00323875
     794.005        -80.507    0.000128501    0.000148729       0.866348     0.00323746
     794.505        -80.508    0.000128456    0.000148706       0.866496     0.00323617
     795.005        -80.509    0.000128411    0.000148684       0.866644     0.00323488
     795.505        -80.511    0.000128366    0.000148661       0.866792      0.0032336
     796.005        -80.512    0.000128322    0.000148638        0.86694     0.00323232
     796.505        -80.513    0.000128277    0.000148616       0.867088     0.00323104
     797.005        -80.514    0.000128232    0.000148594       0.867236     0.00322976
     797.505        -80.515    0.000128188    0.000148571       0.867383     0.00322849
     798.005        -80.517    0.000128143    0.000148549        0.86753     0.00322722
     798.505        -80.518    0.000128099    0.000148527       0.867677     0.00322596
     799.005        -80.519    0.000128055    0.000148504       0.867824     0.00322469
     799.505        -80.520    0.000128011    0.000148482       0.867971     0.00322343
     800.005        -80.521    0.000127966     0.00014846       0.868118     0.00322217
     800.505        -80.523    0.000127922    0.000148438       0.868264     0.00322092
     801.005        -80.524    0.000127878    0.000148416        0.86841     0.00321967
     801.505        -80.525    0.000127835    0.000148394       0.868556     0.00321842
     802.005        -80.526    0.000127791    0.000148372       0.868702     0.00321717
     802.505        -80.527    0.000127747     0.00014835       0.868848     0.00321593
     803.005        -80.528    0.000127704    0.000148328       0.868994     0.00321469
     803.505        -80.530     0.00012766    0.000148307       0.869139     0.00321345
     804.005        -80.531    0.000127617    0.000148285       0.869284     0.00321221
     804.505        -80.532    0.000127573    0.000148263       0.869429     0.00321098
     805.005        -80.533     0.00012753    0.000148242       0.869574     0.00320975
     805.505        -80.534    0.000127487     0.00014822       0.869719     0.00320853
     806.005        -80.535    0.000127444    0.000148198       0.869864      0.0032073
     806.505        -80.537    0.000127401    0.000148177       0.870008     0.00320608
     807.005        -80.538    0.000127358    0.000148155       0.870153     0.00320486
     807.505        -80.539    0.000127315    0.000148134       0.870297     0.00320365
     808.005        -80.540    0.000127272    0.000148113       0.870441     0.00320244
     808.505        -80.541     0.00012723    0.000148091       0.870584     0.00320123
     809.005        -80.542    0.000127187     0.00014807       0.870728     0.00320002
     809.505        -80.544    0.000127145    0.000148049       0.870872     0.00319881
     810.005        -80.545    0.000127102    0.000148028       0.871015     0.00319761
     810.505        -80.546     0.00012706    0.000148006       0.871158     0.00319641
     811.005        -80.547    0.000127018    0.000147985       0.871301     0.00319522
     811.505        -80.548    0.000126976    0.000147964       0.871444     0.00319402
     812.005        -80.549    0.000126934    0.000147943       0.871587     0.00319283
     812.505        -80.550    0.000126892    0.000147922       0.871729     0.00319165
     813.005        -80.551     0.00012685    0.000147901       0.871872     0.00319046
     813.505        -80.553    0.000126808     0.00014788       0.872014     0.00318928
     814.005        -80.554    0.000126766     0.00014786       0.872156      0.0031881
     814.505        -80.555    0.000126724    0.000147839       0.872298     0.00318692
     815.005        -80.556    0.000126683    0.000147818        0.87244     0.00318575
     815.505        -80.557    0.000126641    0.000147797       0.872581     0.00318457
     816.005        -80.558      0.0001266    0.000147777       0.872723      0.0031834
     816.505        -80.559    0.000126559    0.000147756       0.872864     0.00318224
     817.005        -80.560    0.000126517    0.000147735       0.873005     0.00318107
     817.505        -80.562    0.000126476    0.000147715       0.873146     0.00317991
     818.005        -80.563    0.000126435    0.000147694       0.873287     0.00317875
     818.505        -80.564    0.000126394    0.000147674       0.873428      0.0031776
     819.005        -80.565    0.000126353    0.000147654       0.873568     0.00317644
     819.505        -80.566    0.000126312    0.000147633       0.873708     0.00317529
     820.005        -80.567    0.000126272    0.000147613       0.873849     0.00317414
     820.505        -80.568    0.000126231    0.000147593       0.873989       0.003173
     821.005        -80.569     0.00012619    0.000147572       0.874128     0.00317185
     821.505        -80.570     0.00012615    0.000147552       0.874268     0.00317071
     822.005        -80.571    0.000126109    0.000147532       0.874408     0.00316957
     822.505        -80.573    0.000126069    0.000147512       0.874547     0.00316844
     823.005        -80.574    0.000126029    0.000147492       0.874686      0.0031673
     823.505        -80.575    0.000125988    0.000147472       0.874825     0.00316617
     824.005        -80.576    0.000125948    0.000147452       0.874964     0.00316505
     824.505        -80.577    0.000125908    0.000147432       0.875103     0.00316392
     825.005        -80.578    0.000125868    0.000147412       0.875242      0.0031628
     825.505        -80.579    0.000125828    0.000147392        0.87538     0.00316168
     826.005        -80.580    0.000125788    0.000147372       0.875519     0.00316056
     826.505        -80.581    0.000125749    0.000147353       0.875657     0.00315944
     827.005        -80.582    0.000125709    0.000147333       0.875795     0.00315833
     827.505        -80.583    0.000125669    0.000147313       0.875933     0.00315722
     828.005        -80.584     0.00012563    0.000147294        0.87607     0.00315611
     828.505        -80.585     0.00012559    0.000147274       0.876208       0.003155
     829.005        -80.586    0.000125551    0.000147254       0.876345      0.0031539
     829.505        -80.588    0.000125512    0.000147235       0.876483      0.0031528
     830.005        -80.589    0.000125473    0.000147215        0.87662      0.0031517
     830.505        -80.590    0.000125433    0.000147196       0.876757      0.0031506
     831.005        -80.591    0.000125394    0.000147177       0.876893     0.00314951
     831.505        -80.592    0.000125355    0.000147157        0.87703     0.00314842
     832.005        -80.593    0.000125316    0.000147138       0.877166     0.00314733
     832.505        -80.594    0.000125278    0.000147119       0.877303     0.00314624
     833.005        -80.595    0.000125239    0.000147099       0.877439     0.00314516
     833.505        -80.596      0.0001252     0.00014708       0.877575     0.00314408
     834.005        -80.597    0.000125162    0.000147061       0.877711       0.003143
     834.505        -80.598    0.000125123    0.000147042       0.877847     0.00314192
     835.005        -80.599    0.000125085    0.000147023       0.877982     0.00314085
     835.505        -80.600    0.000125046    0.000147004       0.878118     0.00313978
     836.005        -80.601    0.000125008    0.000146985       0.878253     0.00313871
     836.505        -80.602     0.00012497    0.000146966       0.878388     0.00313764
     837.005        -80.603    0.000124931    0.000146947       0.878523     0.00313657
     837.505        -80.604    0.000124893    0.000146928       0.878658     0.00313551
     838.005        -80.605    0.000124855    0.000146909       0.878792     0.00313445
     838.505        -80.606    0.000124817     0.00014689       0.878927     0.00313339
     839.005        -80.607    0.000124779    0.000146872       0.879061     0.00313234
     839.505        -80.608    0.000124742    0.000146853       0.879195     0.00313128
     840.005        -80.609    0.000124704    0.000146834        0.87933     0.00313023
     840.505        -80.610    0.000124666    0.000146816       0.879463     0.00312918
     841.005        -80.611    0.000124629    0.000146797       0.879597     0.00312814
     841.505        -80.612    0.000124591    0.000146778       0.879731     0.00312709
     842.005        -80.613    0.000124554     0.00014676       0.879864     0.00312605
     842.505        -80.614    0.000124516    0.000146741       0.879998     0.00312501
     843.005        -80.615    0.000124479    0.000146723       0.880131     0.00312397
     843.505        -80.616    0.000124442    0.000146704       0.880264     0.00312294
     844.005        -80.617    0.000124405    0.000146686       0.880397     0.00312191
     844.505        -80.618    0.000124368    0.000146668       0.880529     0.00312088
     845.005        -80.619    0.000124331    0.000146649       0.880662     0.00311985
     845.505        -80.620    0.000124294    0.000146631       0.880794     0.00311882
     846.005        -80.621    0.000124257    0.000146613       0.880927      0.0031178
     846.505        -80.622     0.00012422    0.000146595       0.881059     0.00311678
     847.005        -80.623    0.000124183    0.000146577       0.881191     0.00311576
     847.505        -80.624    0.000124147    0.000146558       0.881323     0.00311474
     848.005        -80.625     0.00012411     0.00014654       0.881454     0.00311372
     848.505        -80.626    0.000124073    0.000146522       0.881586     0.00311271
     849.005        -80.627    0.000124037    0.000146504       0.881717      0.0031117
     849.505        -80.628    0.000124001    0.000146486       0.881849     0.00311069
     850.005        -80.629    0.000123964    0.000146468        0.88198     0.00310969
     850.505        -80.630    0.000123928    0.000146451       0.882111     0.00310868
     851.005        -80.631    0.000123892    0.000146433       0.882242     0.00310768
     851.505        -80.632    0.000123856    0.000146415       0.882372     0.00310668
     852.005        -80.633     0.00012382    0.000146397       0.882503     0.00310568
     852.505        -80.634    0.000123784    0.000146379       0.882633     0.00310469
     853.005        -80.635    0.000123748    0.000146362       0.882763     0.00310369
     853.505        -80.636    0.000123712    0.000146344       0.882893      0.0031027
     854.005        -80.637    0.000123676    0.000146326       0.883023     0.00310171
     854.505        -80.638     0.00012364    0.000146309       0.883153     0.00310073
     855.005        -80.639    0.000123605    0.000146291       0.883283     0.00309974
     855.505        -80.640    0.000123569    0.000146274       0.883412     0.00309876
     856.005        -80.641    0.000123534    0.000146256       0.883542     0.00309778
     856.505        -80.642    0.000123498    0.000146239       0.883671      0.0030968
     857.005        -80.643    0.000123463    0.000146221         0.8838     0.00309582
     857.505        -80.644    0.000123428    0.000146204       0.883929     0.00309485
     858.005        -80.645    0.000123393    0.000146186       0.884058     0.00309388
     858.505        -80.646    0.000123357    0.000146169       0.884186     0.00309291
     859.005        -80.647    0.000123322    0.000146152       0.884315     0.00309194
     859.505        -80.647    0.000123287    0.000146135       0.884443     0.00309098
     860.005        -80.648    0.000123252    0.000146117       0.884572     0.00309001
     860.505        -80.649    0.000123217      0.0001461         0.8847     0.00308905
     861.005        -80.650    0.000123183    0.000146083       0.884828     0.00308809
     861.505        -80.651    0.000123148    0.000146066       0.884955     0.00308713
     862.005        -80.652    0.000123113    0.000146049       0.885083     0.00308618
     862.505        -80.653    0.000123078    0.000146032        0.88521     0.00308522
     863.005        -80.654    0.000123044    0.000146015       0.885338     0.00308427
     863.505        -80.655    0.000123009    0.000145998       0.885465     0.00308332
     864.005        -80.656    0.000122975    0.000145981       0.885592     0.00308238
     864.505        -80.657    0.000122941    0.000145964       0.885719     0.00308143
     865.005        -80.658    0.000122906    0.000145947       0.885846     0.00308049
     865.505        -80.659    0.000122872     0.00014593       0.885973     0.00307955
     866.005        -80.660    0.000122838    0.000145913       0.886099     0.00307861
     866.505        -80.660    0.000122804    0.000145897       0.886225     0.00307767
     867.005        -80.661     0.00012277     0.00014588       0.886352     0.00307673
     867.505        -80.662    0.000122736    0.000145863       0.886478      0.0030758
     868.005        -80.663    0.000122702    0.000145847       0.886604     0.00307487
     868.505        -80.664    0.000122668     0.00014583        0.88673     0.00307394
     869.005        -80.665    0.000122634    0.000145813       0.886855     0.00307301
     869.505        -80.666      0.0001226    0.000145797       0.886981     0.00307209
     870.005        -80.667    0.000122567     0.00014578       0.887106     0.00307116
     870.505        -80.668    0.000122533    0.000145764       0.887231     0.00307024
     871.005        -80.669      0.0001225    0.000145747       0.887357     0.00306932
     871.505        -80.670    0.000122466    0.000145731       0.887481      0.0030684
     872.005        -80.670    0.000122433    0.000145714       0.887606     0.00306749
     872.505        -80.671    0.000122399    0.000145698       0.887731     0.00306658
     873.005        -80.672    0.000122366    0.000145682       0.887856     0.00306566
     873.505        -80.673    0.000122333    0.000145665        0.88798     0.00306475
     874.005        -80.674      0.0001223    0.000145649       0.888104     0.00306385
     874.505        -80.675    0.000122267    0.000145633       0.888228     0.00306294
     875.005        -80.676    0.000122234    0.000145617       0.888352     0.00306204
     875.505        -80.677    0.000122201      0.0001456       0.888476     0.00306113
     876.005        -80.678    0.000122168    0.000145584         0.8886     0.00306023
     876.505        -80.678    0.000122135    0.000145568       0.888724     0.00305934
     877.005        -80.679    0.000122102    0.000145552       0.888847     0.00305844
     877.505        -80.680    0.000122069    0.000145536        0.88897     0.00305754
     878.005        -80.681    0.000122037     0.00014552       0.889094     0.00305665
     878.505        -80.682    0.000122004    0.000145504       0.889217     0.00305576
     879.005        -80.683    0.000121972    0.000145488       0.889339     0.00305487
     879.505        -80.684    0.000121939    0.000145472       0.889462     0.00305398
     880.005        -80.685    0.000121907    0.000145456       0.889585      0.0030531
     880.505        -80.685    0.000121874     0.00014544       0.889707     0.00305222
     881.005        -80.686    0.000121842    0.000145425        0.88983     0.00305133
     881.505        -80.687     0.00012181    0.000145409       0.889952     0.00305046
     882.005        -80.688    0.000121778    0.000145393       0.890074     0.00304958
     882.505        -80.689    0.000121745    0.000145377       0.890196      0.0030487
     883.005        -80.690    0.000121713    0.000145362       0.890318     0.00304783
     883.505        -80.691    0.000121681    0.000145346       0.890439     0.00304695
     884.005        -80.692    0.000121649     0.00014533       0.890561     0.00304608
     884.505        -80.692    0.000121618    0.000145315       0.890682     0.00304522
     885.005        -80.693    0.000121586    0.000145299       0.890804     0.00304435
     885.505        -80.694    0.000121554    0.000145284       0.890925     0.00304348
     886.005        -80.695    0.000121522    0.000145268       0.891046     0.00304262
     886.505        -80.696    0.000121491    0.000145253       0.891167     0.00304176
     887.005        -80.697    0.000121459    0.000145237       0.891287      0.0030409
     887.505        -80.698    0.000121427    0.000145222       0.891408     0.00304004
     888.005        -80.698    0.000121396    0.000145206       0.891528     0.00303919
     888.505        -80.699    0.000121365    0.000145191       0.891649     0.00303833
     889.005        -80.700    0.000121333    0.000145176       0.891769     0.00303748
     889.505        -80.701    0.000121302     0.00014516       0.891889     0.00303663
     890.005        -80.702    0.000121271    0.000145145       0.892009     0.00303578
     890.505        -80.703    0.000121239     0.00014513       0.892129     0.00303493
     891.005        -80.703    0.000121208    0.000145115       0.892248     0.00303409
     891.505        -80.704    0.000121177    0.000145099       0.892368     0.00303324
     892.005        -80.705    0.000121146    0.000145084       0.892487      0.0030324
     892.505        -80.706    0.000121115    0.000145069       0.892607     0.00303156
     893.005        -80.707    0.000121084    0.000145054       0.892726     0.00303072
     893.505        -80.708    0.000121054    0.000145039       0.892845     0.00302989
     894.005        -80.708    0.000121023    0.000145024       0.892964     0.00302905
     894.505        -80.709    0.000120992    0.000145009       0.893082     0.00302822
     895.005        -80.710    0.000120961    0.000144994       0.893201     0.00302739
     895.505        -80.711    0.000120931    0.000144979       0.893319     0.00302656
     896.005        -80.712      0.0001209    0.000144964       0.893438     0.00302573
     896.505        -80.713     0.00012087    0.000144949       0.893556      0.0030249
     897.005        -80.713    0.000120839    0.000144934       0.893674     0.00302408
     897.505        -80.714    0.000120809     0.00014492       0.893792     0.00302325
     898.005        -80.715    0.000120779    0.000144905        0.89391     0.00302243
     898.505        -80.716    0.000120748     0.00014489       0.894027     0.00302161
     899.005        -80.717    0.000120718    0.000144875       0.894145      0.0030208
     899.505        -80.717    0.000120688    0.000144861       0.894262     0.00301998
     900.005        -80.718    0.000120658    0.000144846        0.89438     0.00301917
     900.505        -80.719    0.000120628    0.000144831       0.894497     0.00301835
     901.005        -80.720    0.000120598    0.000144817       0.894614     0.00301754
     901.505        -80.721    0.000120568    0.000144802       0.894731     0.00301673
     902.005        -80.721    0.000120538    0.000144788       0.894847     0.00301592
     902.505        -80.722    0.000120508    0.000144773       0.894964     0.00301512
     903.005        -80.723    0.000120478    0.000144759       0.895081     0.00301431
     903.505        -80.724    0.000120449    0.000144744       0.895197     0.00301351
     904.005        -80.725    0.000120419     0.00014473       0.895313     0.00301271
     904.505        -80.725     0.00012039    0.000144715       0.895429     0.00301191
     905.005        -80.726     0.00012036    0.000144701       0.895545     0.00301111
     905.505        -80.727     0.00012033    0.000144686       0.895661     0.00301032
     906.005        -80.728    0.000120301    0.000144672       0.895777     0.00300952
     906.505        -80.729    0.000120272    0.000144658       0.895892     0.00300873
     907.005        -80.729    0.000120242    0.000144643       0.896008     0.00300794
     907.505        -80.730    0.000120213    0.000144629       0.896123     0.00300715
     908.005        -80.731    0.000120184    0.000144615       0.896238     0.00300636
     908.505        -80.732    0.000120155    0.000144601       0.896353     0.00300557
     909.005        -80.733    0.000120125    0.000144587       0.896468     0.00300479
     909.505        -80.733    0.000120096    0.000144572       0.896583       0.003004
     910.005        -80.734    0.000120067    0.000144558       0.896698     0.00300322
     910.505        -80.735    0.000120038    0.000144544       0.896813     0.00300244
     911.005        -80.736     0.00012001     0.00014453       0.896927     0.00300166
     911.505        -80.736    0.000119981    0.000144516       0.897041     0.00300089
     912.005        -80.737    0.000119952    0.000144502       0.897155     0.00300011
     912.505        -80.738    0.000119923    0.000144488        0.89727     0.00299934
     913.005        -80.739    0.000119894    0.000144474       0.897383     0.00299857
     913.505        -80.740    0.000119866     0.00014446       0.897497     0.00299779
     914.005        -80.740    0.000119837    0.000144446       0.897611     0.00299703
     914.505        -80.741    0.000119809    0.000144433       0.897724     0.00299626
     915.005        -80.742     0.00011978    0.000144419       0.897838     0.00299549
     915.505        -80.743    0.000119752    0.000144405       0.897951     0.00299473
     916.005        -80.743    0.000119723    0.000144391       0.898064     0.00299396
     916.505        -80.744    0.000119695    0.000144377       0.898177      0.0029932
     917.005        -80.745    0.000119667    0.000144364        0.89829     0.00299244
     917.505        -80.746    0.000119639     0.00014435       0.898403     0.00299169
     918.005        -80.746     0.00011961    0.000144336       0.898516     0.00299093
     918.505        -80.747    0.000119582    0.000144322       0.898628     0.00299017
     919.005        -80.748    0.000119554    0.000144309       0.898741     0.00298942
     919.505        -80.749    0.000119526    0.000144295       0.898853     0.00298867
     920.005        -80.749    0.000119498    0.000144282       0.898965     0.00298792
     920.505        -80.750     0.00011947    0.000144268       0.899077     0.00298717
     921.005        -80.751    0.000119442    0.000144255       0.899189     0.00298642
     921.505        -80.752    0.000119415    0.000144241       0.899301     0.00298567
     922.005        -80.752    0.000119387    0.000144228       0.899413     0.00298493
     922.505        -80.753    0.000119359    0.000144214       0.899524     0.00298419
     923.005        -80.754    0.000119331    0.000144201       0.899636     0.00298344
     923.505        -80.755    0.000119304    0.000144187       0.899747      0.0029827
     924.005        -80.755    0.000119276    0.000144174       0.899858     0.00298197
     924.505        -80.756    0.000119249    0.000144161       0.899969     0.00298123
     925.005        -80.757    0.000119221    0.000144147        0.90008     0.00298049
     925.505        -80.758    0.000119194    0.000144134       0.900191     0.00297976
     926.005        -80.758    0.000119166    0.000144121       0.900301     0.00297903
     926.505        -80.759    0.000119139    0.000144107       0.900412      0.0029783
     927.005        -80.760    0.000119112    0.000144094       0.900522     0.00297757
     927.505        -80.761    0.000119085    0.000144081       0.900633     0.00297684
     928.005        -80.761    0.000119057    0.000144068       0.900743     0.00297611
     928.505        -80.762     0.00011903    0.000144055       0.900853     0.00297539
     929.005        -80.763    0.000119003    0.000144042       0.900963     0.00297466
     929.505        -80.763    0.000118976    0.000144029       0.901073     0.00297394
     930.005        -80.764    0.000118949    0.000144015       0.901182     0.00297322
     930.505        -80.765    0.000118922    0.000144002       0.901292      0.0029725
     931.005        -80.766    0.000118895    0.000143989       0.901401     0.00297178
     931.505        -80.766    0.000118869    0.000143976       0.901511     0.00297106
     932.005        -80.767    0.000118842    0.000143963        0.90162     0.00297035
     932.505        -80.768    0.000118815    0.000143951       0.901729     0.00296963
     933.005        -80.768    0.000118788    0.000143938       0.901838     0.00296892
     933.505        -80.769    0.000118762    0.000143925       0.901947     0.00296821
     934.005        -80.770    0.000118735    0.000143912       0.902056      0.0029675
     934.505        -80.771    0.000118709    0.000143899       0.902164     0.00296679
     935.005        -80.771    0.000118682    0.000143886       0.902273     0.00296609
     935.505        -80.772    0.000118656    0.000143873       0.902381     0.00296538
     936.005        -80.773    0.000118629    0.000143861       0.902489     0.00296468
     936.505        -80.773    0.000118603    0.000143848       0.902597     0.00296398
     937.005        -80.774    0.000118577    0.000143835       0.902705     0.00296327
     937.505        -80.775     0.00011855    0.000143822       0.902813     0.00296257
     938.005        -80.776    0.000118524     0.00014381       0.902921     0.00296188
     938.505        -80.776    0.000118498    0.000143797       0.903029     0.00296118
     939.005        -80.777    0.000118472    0.000143784       0.903136     0.00296048
     939.505        -80.778    0.000118446    0.000143772       0.903244     0.00295979
     940.005        -80.778     0.00011842    0.000143759       0.903351      0.0029591
     940.505        -80.779    0.000118394    0.000143747       0.903458     0.00295841
     941.005        -80.780    0.000118368    0.000143734       0.903565     0.00295772
     941.505        -80.780    0.000118342    0.000143722       0.903672     0.00295703
     942.005        -80.781    0.000118316    0.000143709       0.903779     0.00295634
     942.505        -80.782     0.00011829    0.000143697       0.903885     0.00295565
     943.005        -80.783    0.000118265    0.000143684       0.903992     0.00295497
     943.505        -80.783    0.000118239    0.000143672       0.904098     0.00295429
     944.005        -80.784    0.000118213    0.000143659       0.904205      0.0029536
     944.505        -80.785    0.000118188    0.000143647       0.904311     0.00295292
     945.005        -80.785    0.000118162    0.000143635       0.904417     0.00295224
     945.505        -80.786    0.000118137    0.000143622       0.904523     0.00295157
     946.005        -80.787    0.000118111     0.00014361       0.904629     0.00295089
     946.505        -80.787    0.000118086    0.000143598       0.904735     0.00295021
     947.005        -80.788     0.00011806    0.000143586        0.90484     0.00294954
     947.505        -80.789    0.000118035    0.000143573       0.904946     0.00294887
     948.005        -80.789     0.00011801    0.000143561       0.905051      0.0029482
     948.505        -80.790    0.000117985    0.000143549       0.905156     0.00294753
     949.005        -80.791    0.000117959    0.000143537       0.905261     0.00294686
     949.505        -80.791    0.000117934    0.000143525       0.905366     0.00294619
     950.005        -80.792    0.000117909    0.000143513       0.905471     0.00294552
     950.505        -80.793    0.000117884    0.000143501       0.905576     0.00294486
     951.005        -80.793    0.000117859    0.000143488       0.905681      0.0029442
     951.505        -80.794    0.000117834    0.000143476       0.905785     0.00294353
     952.005        -80.795    0.000117809    0.000143464        0.90589     0.00294287
     952.505        -80.795    0.000117784    0.000143452       0.905994     0.00294221
     953.005        -80.796    0.000117759     0.00014344       0.906098     0.00294156
     953.505        -80.797    0.000117735    0.000143428       0.906203      0.0029409
     954.005        -80.797     0.00011771    0.000143416       0.906306     0.00294024
     954.505        -80.798    0.000117685    0.000143405        0.90641     0.00293959
     955.005        -80.799    0.000117661    0.000143393       0.906514     0.00293894
     955.505        -80.799    0.000117636    0.000143381       0.906618     0.00293829
     956.005        -80.800    0.000117611    0.000143369       0.906721     0.00293763
     956.505        -80.801    0.000117587    0.000143357       0.906825     0.00293699
     957.005        -80.801    0.000117562    0.000143345       0.906928     0.00293634
     957.505        -80.802    0.000117538    0.000143334       0.907031     0.00293569
     958.005        -80.803    0.000117514    0.000143322       0.907134     0.00293505
     958.505        -80.803    0.000117489     0.00014331       0.907237      0.0029344
     959.005        -80.804    0.000117465    0.000143298        0.90734     0.00293376
     959.505        -80.805    0.000117441    0.000143287       0.907443     0.00293312
     960.005        -80.805    0.000117416    0.000143275       0.907545     0.00293248
     960.505        -80.806    0.000117392    0.000143263       0.907648     0.00293184
     961.005        -80.807    0.000117368    0.000143252        0.90775      0.0029312
     961.505        -80.807    0.000117344     0.00014324       0.907852     0.00293056
     962.005        -80.808     0.00011732    0.000143229       0.907954     0.00292993
     962.505        -80.809    0.000117296    0.000143217       0.908056     0.00292929
     963.005        -80.809    0.000117272    0.000143205       0.908158     0.00292866
     963.505        -80.810    0.000117248    0.000143194        0.90826     0.00292803
     964.005        -80.811    0.000117224    0.000143182       0.908362      0.0029274
     964.505        -80.811      0.0001172    0.000143171       0.908463     0.00292677
     965.005        -80.812    0.000117177     0.00014316       0.908565     0.00292614
     965.505        -80.812    0.000117153    0.000143148       0.908666     0.00292551
     966.005        -80.813    0.000117129    0.000143137       0.908767     0.00292489
     966.505        -80.814    0.000117105    0.000143125       0.908869     0.00292426
     967.005        -80.814    0.000117082    0.000143114        0.90897     0.00292364
     967.505        -80.815    0.000117058    0.000143103       0.909071     0.00292302
     968.005        -80.816    0.000117035    0.000143091       0.909171      0.0029224
     968.505        -80.816    0.000117011     0.00014308       0.909272     0.00292178
     969.005        -80.817    0.000116988    0.000143069       0.909373     0.00292116
     969.505        -80.817    0.000116964    0.000143057       0.909473     0.00292054
     970.005        -80.818    0.000116941    0.000143046       0.909573     0.00291993
     970.505        -80.819    0.000116918    0.000143035       0.909674     0.00291931
     971.005        -80.819    0.000116894    0.000143024       0.909774      0.0029187
     971.505        -80.820    0.000116871    0.000143013       0.909874     0.00291809
     972.005        -80.821    0.000116848    0.000143001       0.909974     0.00291748
     972.505        -80.821    0.000116825     0.00014299       0.910073     0.00291687
     973.005        -80.822    0.000116801    0.000142979       0.910173     0.00291626
     973.505        -80.822    0.000116778    0.000142968       0.910273     0.00291565
     974.005        -80.823    0.000116755    0.000142957       0.910372     0.00291504
     974.505        -80.824    0.000116732    0.000142946       0.910471     0.00291444
     975.005        -80.824    0.000116709    0.000142935       0.910571     0.00291383
     975.505        -80.825    0.000116686    0.000142924        0.91067     0.00291323
     976.005        -80.826    0.000116664    0.000142913       0.910769     0.00291263
     976.505        -80.826    0.000116641    0.000142902       0.910868     0.00291203
     977.005        -80.827    0.000116618    0.000142891       0.910966     0.00291143
     977.505        -80.827    0.000116595     0.00014288       0.911065     0.00291083
     978.005        -80.828    0.000116572    0.000142869       0.911164     0.00291023
     978.505        -80.829     0.00011655    0.000142858       0.911262     0.00290964
     979.005        -80.829    0.000116527    0.000142847        0.91136     0.00290904
     979.505        -80.830    0.000116504    0.000142837       0.911459     0.00290845
     980.005        -80.830    0.000116482    0.000142826       0.911557     0.00290785
     980.505        -80.831    0.000116459    0.000142815       0.911655     0.00290726
     981.005        -80.832    0.000116437    0.000142804       0.911753     0.00290667
     981.505        -80.832    0.000116414    0.000142793        0.91185     0.00290608
     982.005        -80.833    0.000116392    0.000142783       0.911948      0.0029055
     982.505        -80.833     0.00011637    0.000142772       0.912046     0.00290491
     983.005        -80.834    0.000116347    0.000142761       0.912143     0.00290432
     983.505        -80.835    0.000116325     0.00014275       0.912241     0.00290374
     984.005        -80.835    0.000116303     0.00014274       0.912338     0.00290315
     984.505        -80.836    0.000116281    0.000142729       0.912435     0.00290257
     985.005        -80.836    0.000116258    0.000142718       0.912532     0.00290199
     985.505        -80.837    0.000116236    0.000142708       0.912629     0.00290141
     986.005        -80.838    0.000116214    0.000142697       0.912726     0.00290083
     986.505        -80.838    0.000116192    0.000142687       0.912822     0.00290025
     987.005        -80.839     0.00011617    0.000142676       0.912919     0.00289968
     987.505        -80.839    0.000116148    0.000142666       0.913015      0.0028991
     988.005        -80.840    0.000116126    0.000142655       0.913112     0.00289852
     988.505        -80.841    0.000116104    0.000142645       0.913208     0.00289795
     989.005        -80.841    0.000116082    0.000142634       0.913304     0.00289738
     989.505        -80.842     0.00011606    0.000142624         0.9134     0.00289681
     990.005        -80.842    0.000116039    0.000142613       0.913496     0.00289624
     990.505        -80.843    0.000116017    0.000142603       0.913592     0.00289567
     991.005        -80.843    0.000115995    0.000142592       0.913688      0.0028951
     991.505        -80.844    0.000115974    0.000142582       0.913784     0.00289453
     992.005        -80.845    0.000115952    0.000142572       0.913879     0.00289397
     992.505        -80.845     0.00011593    0.000142561       0.913975      0.0028934
     993.005        -80.846    0.000115909    0.000142551        0.91407     0.00289284
     993.505        -80.846    0.000115887    0.000142541       0.914165     0.00289227
     994.005        -80.847    0.000115866     0.00014253        0.91426     0.00289171
     994.505        -80.848    0.000115844     0.00014252       0.914355     0.00289115
     995.005        -80.848    0.000115823     0.00014251        0.91445     0.00289059
     995.505        -80.849    0.000115801      0.0001425       0.914545     0.00289003
     996.005        -80.849     0.00011578    0.000142489        0.91464     0.00288947
     996.505        -80.850    0.000115759    0.000142479       0.914734     0.00288892
     997.005        -80.850    0.000115738    0.000142469       0.914829     0.00288836
     997.505        -80.851    0.000115716    0.000142459       0.914923     0.00288781
     998.005        -80.852    0.000115695    0.000142449       0.915017     0.00288725
     998.505        -80.852    0.000115674    0.000142439       0.915111      0.0028867
     999.005        -80.853    0.000115653    0.000142428       0.915205     0.00288615
     999.505        -80.853    0.000115632    0.000142418       0.915299      0.0028856
    1000.005        -80.854    0.000115611    0.000142408       0.915393     0.00288505
    1000.505        -80.854     0.00011559    0.000142398       0.915487      0.0028845
    1001.005        -80.855    0.000115569    0.000142388       0.915581     0.00288396
    1001.505        -80.856    0.000115548    0.000142378       0.915674     0.00288341
    1002.005        -80.856    0.000115527    0.000142368       0.915768     0.00288286
    1002.505        -80.857    0.000115506    0.000142358       0.915861     0.00288232
    1003.005        -80.857    0.000115485    0.000142348       0.915954     0.00288178
    1003.505        -80.858    0.000115464    0.000142338       0.916047     0.00288124
    1004.005        -80.858    0.000115444    0.000142328        0.91614     0.00288069
    1004.505        -80.859    0.000115423    0.000142318       0.916233     0.00288015
    1005.005        -80.859    0.000115402    0.000142309       0.916326     0.00287962
    1005.505        -80.860    0.000115382    0.000142299       0.916419     0.00287908
    1006.005        -80.861    0.000115361    0.000142289       0.916511     0.00287854
    1006.505        -80.861     0.00011534    0.000142279       0.916604       0.002878
    1007.005        -80.862     0.00011532    0.000142269       0.916696     0.00287747
    1007.505        -80.862    0.000115299    0.000142259       0.916788     0.00287694
    1008.005        -80.863    0.000115279     0.00014225       0.916881      0.0028764
    1008.505        -80.863    0.000115258     0.00014224       0.916973     0.00287587
    1009.005        -80.864    0.000115238     0.00014223       0.917065     0.00287534
    1009.505        -80.864    0.000115218     0.00014222       0.917157     0.00287481
    1010.005        -80.865    0.000115197    0.000142211       0.917248     0.00287428
